FFT,Power Spectrum
Frequency[Hz],Level-L[dB],Level-R[dB]
11.719,-23.842,-21.938
23.438,-3.6191,-0.54325
35.156,-1.9301,6.304
46.875,5.6476,10.929
58.594,5.6904,13.237
70.313,2.8259,13.378
82.031,7.429,15.726
93.75,8.4064,18.036
105.47,7.1819,18.821
117.19,6.4383,17.708
128.91,12.771,16.144
140.63,15.61,15.99
152.34,10.312,15.663
164.06,1.7456,17.754
175.78,2.44,17.905
187.5,10.637,15.402
199.22,11.887,15.317
210.94,5.4137,16.737
222.66,8.4692,17.263
234.38,10.178,17.839
246.09,7.3597,17.121
257.81,11.434,15.456
269.53,9.7414,16.508
281.25,11.73,18.489
292.97,10.863,19.922
304.69,6.1594,21.95
316.41,6.0016,23.706
328.13,6.1623,22.519
339.84,7.7874,20.356
351.56,7.0202,17.119
363.28,5.8314,18.343
375,4.164,16.704
386.72,5.6524,17.005
398.44,6.7018,15.079
410.16,5.1791,13.323
421.88,5.7575,14.268
433.59,7.9151,16.008
445.31,3.9108,18.21
457.03,3.8811,19.054
468.75,4.6858,20.594
480.47,4.631,18.518
492.19,4.9428,17.657
503.91,2.2351,18.011
515.63,0.55881,20.398
527.34,0.77858,22.394
539.06,4.0994,20.986
550.78,6.7604,18.887
562.5,8.9217,19.627
574.22,8.0891,20.724
585.94,3.8106,19.799
597.66,2.8621,16.998
609.38,6.1263,16.671
621.09,7.2559,16.778
632.81,7.0088,18.854
644.53,7.1721,20.128
656.25,5.9807,20.589
667.97,3.8326,21.382
679.69,3.3826,19.055
691.41,6.0481,18.352
703.13,5.7003,16.919
714.84,3.0446,18.222
726.56,2.4235,17.781
738.28,7.0857,18.161
750,9.4235,15.856
761.72,6.2805,13.893
773.44,4.9845,16.011
785.16,4.4481,17.416
796.88,3.01,18.803
808.59,4.8654,18.138
820.31,7.9494,17.412
832.03,6.2603,14.255
843.75,4.6151,13.381
855.47,4.0978,16.984
867.19,3.6375,18.408
878.91,4.7426,16.452
890.63,5.0829,15.205
902.34,6.7187,18.522
914.06,4.661,19.521
925.78,4.9048,19.479
937.5,7.9165,18.265
949.22,4.1013,17.356
960.94,9.279,14.249
972.66,10.116,13.811
984.38,5.7091,17.724
996.09,4.713,18.072
1007.8,4.8689,18.867
1019.5,6.0096,17.935
1031.3,4.5427,18.046
1043,6.0222,15.436
1054.7,6.3133,14.321
1066.4,3.8374,14.229
1078.1,6.5568,13.823
1089.8,3.911,14.22
1101.6,5.3785,14.641
1113.3,4.9929,16.151
1125,5.0064,14.713
1136.7,3.7512,14.729
1148.4,5.9354,15.893
1160.2,6.9002,15.785
1171.9,4.6536,17.821
1183.6,3.7249,19.476
1195.3,4.9142,19.976
1207,2.5909,19.011
1218.8,5.185,16.498
1230.5,7.6536,16.437
1242.2,5.8832,17.19
1253.9,4.164,17.988
1265.6,6.5074,17.299
1277.3,6.7853,17.323
1289.1,5.3867,16.038
1300.8,6.1966,18.262
1312.5,6.1887,18.211
1324.2,2.8323,18.705
1335.9,5.1733,18.282
1347.7,5.5473,15.701
1359.4,3.3943,14.031
1371.1,4.1746,11.981
1382.8,5.0051,15.129
1394.5,5.4784,19.273
1406.3,2.4073,19.41
1418,3.8462,18.356
1429.7,6.3502,15.071
1441.4,7.0288,13.263
1453.1,5.5845,13.367
1464.8,2.7479,15.703
1476.6,4.8647,16.595
1488.3,4.4994,16.026
1500,5.8974,16.148
1511.7,7.6945,16.867
1523.4,6.6709,16.095
1535.2,6.2837,14.995
1546.9,3.598,16.373
1558.6,0.27623,17.255
1570.3,3.4948,15.255
1582,5.4386,13.735
1593.8,6.5484,12.512
1605.5,5.7278,14.279
1617.2,2.6936,15.064
1628.9,1.2647,14.832
1640.6,2.8149,14.13
1652.3,3.782,14.347
1664.1,6.4147,14.173
1675.8,5.0269,11.622
1687.5,3.9209,14.047
1699.2,4.7308,16.66
1710.9,6.9049,18.341
1722.7,5.5818,18.055
1734.4,1.2715,16.564
1746.1,-0.99026,15.5
1757.8,2.7124,15.297
1769.5,3.7292,14.818
1781.3,5.0026,13.4
1793,6.3973,13.937
1804.7,5.2779,12.631
1816.4,5.4756,10.513
1828.1,4.7515,10.019
1839.8,1.9838,11.473
1851.6,4.2504,13.652
1863.3,0.78914,15.258
1875,1.9313,16.215
1886.7,1.6778,16.045
1898.4,0.79893,14.081
1910.2,1.2177,11.647
1921.9,0.46922,13.085
1933.6,-0.93656,13.679
1945.3,1.288,14.019
1957,2.9078,16.213
1968.8,2.5627,17.184
1980.5,4.6541,17.297
1992.2,4.4134,15.774
2003.9,3.0132,14.408
2015.6,1.848,16.084
2027.3,-0.5188,17.674
2039.1,-0.78565,17.887
2050.8,-1.563,15.287
2062.5,2.6931,12.601
2074.2,3.6971,13.465
2085.9,2.4943,16.163
2097.7,-2.1298,16.51
2109.4,2.4963,14.944
2121.1,2.4297,12.991
2132.8,2.2211,12.412
2144.5,0.74347,16.053
2156.3,2.6965,16.685
2168,3.9174,14.912
2179.7,2.709,15.73
2191.4,1.6323,15.948
2203.1,4.8728,14.625
2214.8,3.3063,12.933
2226.6,2.0158,13.51
2238.3,2.6629,15.898
2250,2.7017,17.297
2261.7,3.1568,13.865
2273.4,2.7821,11.76
2285.2,2.0279,11.235
2296.9,0.61896,12.454
2308.6,1.7676,14.465
2320.3,-0.64386,13.458
2332,-2.0108,10.962
2343.8,-3.2799,11.33
2355.5,-0.21245,8.1839
2367.2,1.6838,10.663
2378.9,2.8425,12.484
2390.6,2.0077,11.478
2402.3,-0.45118,13.489
2414.1,-0.097105,13.288
2425.8,-1.7172,12.529
2437.5,0.20174,14.479
2449.2,2.3587,14.623
2460.9,1.3791,12.308
2472.7,-0.64915,10.12
2484.4,0.54453,9.1792
2496.1,0.91569,11.152
2507.8,2.9024,11.632
2519.5,4.1492,12.27
2531.3,5.947,10.878
2543,2.9771,8.0079
2554.7,-0.37586,9.9886
2566.4,-2.4617,11.926
2578.1,-0.74458,11.264
2589.8,-2.0772,12.643
2601.6,-1.4754,13.621
2613.3,1.4588,14.362
2625,2.6328,12.994
2636.7,3.6189,11.434
2648.4,1.6016,14.443
2660.2,0.055699,13.788
2671.9,-0.1753,11.259
2683.6,1.4635,9.2916
2695.3,-0.056174,9.4766
2707,1.4362,8.5056
2718.8,-1.2679,8.6633
2730.5,1.1862,12.476
2742.2,2.0579,12.902
2753.9,0.77504,11.561
2765.6,0.92577,11.123
2777.3,-0.17999,9.0823
2789.1,1.2104,9.0933
2800.8,4.2099,9.6346
2812.5,3.1199,11.251
2824.2,0.60406,12.536
2835.9,-0.9272,13.122
2847.7,-1.4447,12.844
2859.4,3.4468,12.14
2871.1,-1.0701,12.82
2882.8,0.80775,12.897
2894.5,-0.22861,7.4557
2906.3,-0.10585,9.8646
2918,-1.9954,9.8696
2929.7,0.89874,10.578
2941.4,0.57013,11.898
2953.1,-1.2676,11.186
2964.8,0.067512,12.167
2976.6,-0.95288,9.5622
2988.3,-1.2463,10.279
3000,-3.0876,12.08
3011.7,-2.038,12.266
3023.4,-0.098101,10.823
3035.2,-1.1375,10.825
3046.9,0.63183,9.3894
3058.6,0.41001,6.8337
3070.3,1.3992,8.3487
3082,0.71584,8.8462
3093.8,-1.423,8.7491
3105.5,-2.17,7.9233
3117.2,-3.2044,8.464
3128.9,-3.5596,9.5945
3140.6,-0.44074,12.072
3152.3,-1.275,12.839
3164.1,-3.2162,10.027
3175.8,-0.30445,9.4922
3187.5,0.33624,9.7595
3199.2,-0.79214,9.1106
3210.9,-3.3747,9.8851
3222.7,-1.3079,9.9093
3234.4,2.2686,11.896
3246.1,1.3086,10.343
3257.8,-0.71928,8.3286
3269.5,0.70215,8.0605
3281.3,0.14211,10.897
3293,-1.0787,10.7
3304.7,-2.3797,10.394
3316.4,-1.3214,10.823
3328.1,0.19833,8.7709
3339.8,-0.13998,3.3442
3351.6,-2.3169,4.1717
3363.3,0.49256,10.341
3375,-0.24174,12.574
3386.7,-0.43793,12.822
3398.4,-1.3576,13.562
3410.2,-3.8531,12.055
3421.9,-6.5894,9.055
3433.6,-9.1905,7.5449
3445.3,-6.0002,9.2116
3457,-2.9188,12.035
3468.8,-2.2576,12.883
3480.5,-2.5304,12.323
3492.2,-0.64579,11.313
3503.9,-2.0442,11.535
3515.6,-1.5589,9.5948
3527.3,0.66525,11.096
3539.1,-2.2015,11.426
3550.8,-4.1887,11.676
3562.5,-3.8399,10.486
3574.2,-3.3628,9.1916
3585.9,-1.405,10.665
3597.7,-2.6733,11.582
3609.4,-0.87292,12.863
3621.1,-2.3871,13.671
3632.8,0.29284,14.379
3644.5,0.14065,14.149
3656.3,-1.5708,11.188
3668,-1.6528,9.1944
3679.7,-2.025,10.852
3691.4,-0.76276,11.687
3703.1,-0.52371,12.578
3714.8,-1.5068,13.413
3726.6,-3.3387,10.639
3738.3,-2.4388,9.5011
3750,-1.9353,7.0557
3761.7,-2.1483,7.2762
3773.4,-0.93913,9.1423
3785.2,-4.2041,10.71
3796.9,-5.0187,11.408
3808.6,-6.0111,11.084
3820.3,-4.2061,10.279
3832,-4.7613,9.0678
3843.8,-2.657,11.401
3855.5,-0.32714,11.811
3867.2,-0.13415,10.41
3878.9,-3.4493,9.7281
3890.6,-4.3067,12.114
3902.3,-0.30422,13.258
3914.1,-0.072557,11.66
3925.8,-3.0442,8.6447
3937.5,-4.8838,7.0109
3949.2,-1.9169,6.0095
3960.9,-3.6143,8.6973
3972.7,-4.4723,8.2122
3984.4,0.9081,10.113
3996.1,-2.6239,11.154
4007.8,-2.6444,11.957
4019.5,0.040551,9.7187
4031.3,-1.2203,5.7481
4043,-3.2452,10.476
4054.7,-2.8921,10.772
4066.4,-3.7584,9.6961
4078.1,-0.38542,10.194
4089.8,-2.7614,7.8989
4101.6,-6.1971,9.2901
4113.3,-3.2734,11.362
4125,-1.8518,12.513
4136.7,-4.8565,10.807
4148.4,-1.2272,7.2772
4160.2,-2.8276,5.4684
4171.9,0.43496,5.8444
4183.6,-0.89398,7.2059
4195.3,-2.9192,11.656
4207,-2.8098,12.542
4218.8,-2.8737,12.26
4230.5,-0.72033,11.443
4242.2,-1.0603,11.277
4253.9,-2.6169,12.218
4265.6,-6.3588,11.546
4277.3,-3.4261,9.4854
4289.1,-3.0556,8.3067
4300.8,-2.6168,9.0138
4312.5,-2.3783,11.921
4324.2,-4.8811,10.075
4335.9,-4.3922,9.0782
4347.7,-4.9351,8.7586
4359.4,-4.0093,8.5476
4371.1,-2.5693,9.0853
4382.8,-4.3896,10.27
4394.5,-4.1878,8.9661
4406.3,-4.2597,7.9308
4418,-1.7136,8.4121
4429.7,-2.4528,9.3128
4441.4,-3.1299,7.7342
4453.1,-2.4083,8.8386
4464.8,-3.3873,9.9247
4476.6,-3.1274,9.4514
4488.3,-0.87054,7.3433
4500,-0.06809,4.2389
4511.7,-0.9887,7.9239
4523.4,-1.8438,9.3014
4535.2,-3.0437,8.521
4546.9,-3.9736,8.041
4558.6,-3.932,9.2492
4570.3,-1.7698,10.306
4582,-3.0816,10.027
4593.8,-1.1432,8.827
4605.5,0.93289,10.071
4617.2,0.72282,11.316
4628.9,-1.1172,9.9479
4640.6,-3.7373,3.1857
4652.3,-3.1113,5.5518
4664.1,-1.4779,5.0807
4675.8,-0.67374,7.6215
4687.5,-3.8512,11.283
4699.2,-5.1246,12.215
4710.9,-2.1957,9.2456
4722.7,-5.2433,8.8994
4734.4,-3.1192,8.2195
4746.1,-2.0827,8.5853
4757.8,-2.4842,12.71
4769.5,-3.4383,12.839
4781.3,-3.2637,9.3939
4793,-5.1789,7.6707
4804.7,-1.4432,8.5824
4816.4,-2.2221,6.9448
4828.1,-4.5675,8.8779
4839.8,-6.2052,8.2612
4851.6,-6.8043,9.6944
4863.3,-7.3484,8.4398
4875,-5.6863,4.5956
4886.7,-4.4219,8.8566
4898.4,-3.2501,11.852
4910.2,-2.1418,9.1909
4921.9,-4.8919,9.3857
4933.6,-6.1389,8.4605
4945.3,-5.3422,5.5945
4957,-2.1586,8.5141
4968.8,-2.0668,8.8491
4980.5,-0.2181,7.8257
4992.2,-1.4337,8.849
5003.9,-4.8088,8.2924
5015.6,-4.7023,8.8425
5027.3,-4.3349,5.6009
5039.1,-6.3586,4.7441
5050.8,-7.1665,9.3766
5062.5,-5.8384,12.728
5074.2,-2.7413,12.97
5085.9,-2.7375,11.524
5097.7,-1.9477,8.5029
5109.4,-4.2736,5.5911
5121.1,-3.6218,6.6784
5132.8,-6.2938,7.9447
5144.5,-2.2767,7.1034
5156.3,-3.6359,7.2483
5168,-8.5799,5.6636
5179.7,-8.441,6.3689
5191.4,-4.5689,9.3131
5203.1,-2.3969,8.4463
5214.8,-2.9831,7.0277
5226.6,-3.3814,7.1137
5238.3,-0.93392,7.5027
5250,-1.0788,8.6549
5261.7,-2.8342,9.5203
5273.4,-4.8432,9.7448
5285.2,-5.4965,9.5363
5296.9,-7.2044,7.8263
5308.6,-3.6488,9.0562
5320.3,-1.4713,10.416
5332,-0.90713,8.6437
5343.8,-6.2284,5.1488
5355.5,-5.5858,3.7352
5367.2,-6.0832,6.7887
5378.9,-4.8869,4.4472
5390.6,-4.8786,4.293
5402.3,-7.6311,7.4191
5414.1,-6.9717,9.2526
5425.8,-7.7281,10.371
5437.5,-5.8451,8.4665
5449.2,-5.2108,8.773
5460.9,-5.2441,9.7881
5472.7,-6.7995,9.6549
5484.4,-6.8289,9.7357
5496.1,-5.9552,6.989
5507.8,-3.9857,5.8929
5519.5,-3.8319,4.7001
5531.3,-4.9613,7.1059
5543,-3.6688,6.5671
5554.7,-7.604,5.6871
5566.4,-7.8769,7.2982
5578.1,-7.797,7.6018
5589.8,-4.5266,5.4611
5601.6,-1.4248,5.7091
5613.3,-1.4689,7.8471
5625,-3.1618,9.1492
5636.7,-4.4419,7.7131
5648.4,-5.2215,8.3105
5660.2,-6.7481,4.1107
5671.9,-3.348,5.1229
5683.6,-1.5628,8.6491
5695.3,-2.5006,8.0971
5707,-7.7412,5.6942
5718.8,-8.3285,7.2381
5730.5,-7.8535,7.9113
5742.2,-3.4423,8.3403
5753.9,-3.9366,9.707
5765.6,-7.5096,7.7471
5777.3,-7.7969,8.1497
5789.1,-8.2471,7.9049
5800.8,-6.1103,7.4179
5812.5,-3.7684,7.8232
5824.2,-5.3381,6.6204
5835.9,-4.2696,8.7437
5847.7,-1.2287,9.4522
5859.4,-3.4591,10.293
5871.1,-5.8097,9.5466
5882.8,-4.4849,7.4745
5894.5,-6.1787,6.0201
5906.3,-5.2898,5.8682
5918,-4.7113,8.5954
5929.7,-5.5812,12.081
5941.4,-4.9473,12.235
5953.1,-2.9782,9.5085
5964.8,-4.2004,6.0654
5976.6,-6.0367,8.0165
5988.3,-3.6493,9.2312
6000,-4.9489,7.2208
6011.7,-3.3255,5.0258
6023.4,-3.4036,7.1385
6035.2,-4.5614,6.1398
6046.9,-4.4483,7.5243
6058.6,-3.4184,9.3718
6070.3,-5.1644,10.393
6082,-6.8204,11.739
6093.8,-7.5796,10.802
6105.5,-6.4338,8.629
6117.2,-8.1825,8.1961
6128.9,-6.4846,7.5827
6140.6,-4.7465,8.2466
6152.3,-4.6589,8.0599
6164.1,-5.6265,6.4422
6175.8,-3.7372,5.7463
6187.5,-4.3984,6.7713
6199.2,-4.2838,7.5505
6210.9,-4.3487,6.2003
6222.7,-4.673,5.4797
6234.4,-6.3663,5.5382
6246.1,-7.4229,8.0468
6257.8,-8.482,7.4502
6269.5,-6.9557,6.5774
6281.3,-7.8167,4.5951
6293,-6.2507,2.9817
6304.7,-7.0107,3.4705
6316.4,-5.5377,3.7248
6328.1,-6.7818,4.6974
6339.8,-7.5058,2.9493
6351.6,-8.757,3.3641
6363.3,-8.1638,4.6347
6375,-7.5054,7.0127
6386.7,-3.6387,7.551
6398.4,-5.4185,7.1605
6410.2,-7.8331,5.4599
6421.9,-5.4905,3.8461
6433.6,-3.1963,5.8822
6445.3,-8.8753,6.0488
6457,-10.283,6.0166
6468.8,-7.1977,1.7664
6480.5,-3.6731,0.20274
6492.2,-4.2041,1.8204
6503.9,-5.7369,3.5292
6515.6,-6.6518,1.5925
6527.3,-7.3535,4.4252
6539.1,-5.4946,5.2676
6550.8,-5.8415,5.6504
6562.5,-7.5048,3.3789
6574.2,-6.8089,0.9535
6585.9,-7.8342,2.0643
6597.7,-8.1554,1.2783
6609.4,-4.0889,-4.3646
6621.1,-3.9223,-2.0351
6632.8,-4.1794,1.5268
6644.5,-5.6425,5.4803
6656.3,-7.4198,3.196
6668,-7.2592,1.3999
6679.7,-7.7821,2.0609
6691.4,-6.6992,2.597
6703.1,-7.3226,2.0904
6714.8,-10.152,2.1313
6726.6,-10.993,2.9944
6738.3,-8.8872,2.9748
6750,-5.0167,1.3174
6761.7,-5.2256,4.5653
6773.4,-7.4533,7.1311
6785.2,-5.5733,6.4297
6796.9,-5.8301,4.052
6808.6,-7.2142,3.2374
6820.3,-5.3874,5.4575
6832,-5.3323,6.1629
6843.8,-7.0522,7.4235
6855.5,-8.4258,7.1076
6867.2,-7.206,5.0257
6878.9,-5.7136,2.6021
6890.6,-7.0105,4.3051
6902.3,-5.1515,6.2821
6914.1,-5.9301,7.358
6925.8,-6.7713,8.3252
6937.5,-5.0085,8.1266
6949.2,-4.7477,7.7076
6960.9,-7.6484,4.4073
6972.7,-7.6973,6.8473
6984.4,-7.0927,10.383
6996.1,-8.9137,9.2724
7007.8,-10.385,5.224
7019.5,-7.8829,3.7015
7031.3,-5.2465,3.5263
7043,-4.5412,2.6771
7054.7,-6.1301,4.8164
7066.4,-7.3478,6.2667
7078.1,-12.341,6.3087
7089.8,-9.4524,6.0736
7101.6,-4.2975,5.3645
7113.3,-1.5745,4.8243
7125,-4.7486,5.2338
7136.7,-5.6783,6.8542
7148.4,-7.2363,6.116
7160.2,-6.6563,6.8729
7171.9,-10.663,5.4159
7183.6,-8.5205,3.7844
7195.3,-5.7822,2.1476
7207,-2.792,1.3322
7218.8,-4.2721,1.9062
7230.5,-5.517,4.2591
7242.2,-8.8942,3.5724
7253.9,-6.7445,3.4957
7265.6,-6.7538,5.1364
7277.3,-7.3846,5.4924
7289.1,-6.8783,4.1839
7300.8,-8.111,3.4812
7312.5,-8.0598,2.6055
7324.2,-8.3429,2.4096
7335.9,-12.186,6.5036
7347.7,-9.7468,7.2222
7359.4,-7.9786,3.3329
7371.1,-6.5141,5.5022
7382.8,-5.4953,8.2516
7394.5,-6.321,5.1264
7406.3,-6.1723,2.5206
7418,-5.2449,2.4706
7429.7,-4.9233,4.4808
7441.4,-5.1851,4.3911
7453.1,-8.1263,4.924
7464.8,-9.6322,3.0906
7476.6,-7.3888,0.49111
7488.3,-5.9489,3.0902
7500,1.2895,2.7784
7511.7,18.276,0.96275
7523.4,25.581,2.4184
7535.2,21.532,4.8701
7546.9,3,4.7248
7558.6,-7.5721,1.6541
7570.3,-8.4034,1.86
7582,-7.8081,3.1117
7593.8,-8.5081,5.8711
7605.5,-8.7028,7.5065
7617.2,-8.724,2.5824
7628.9,-7.6489,0.26777
7640.6,-8.4265,0.25011
7652.3,-11.067,1.4806
7664.1,-9.1536,1.2812
7675.8,-6.8895,2.9396
7687.5,-9.3952,2.8212
7699.2,-8.4277,4.0622
7710.9,-9.3513,2.0845
7722.7,-12.046,-0.78477
7734.4,-9.1563,1.3663
7746.1,-9.3571,1.9465
7757.8,-8.6929,-1.0596
7769.5,-8.1825,-0.23078
7781.3,-7.562,-2.0594
7793,-5.5843,1.0758
7804.7,-5.4136,-0.16178
7816.4,-9.0603,-0.27186
7828.1,-7.9095,0.33693
7839.8,-6.8204,0.39514
7851.6,-8.5623,0.46837
7863.3,-7.9616,3.0516
7875,-7.6108,4.1734
7886.7,-12.41,1.1966
7898.4,-10.734,0.65598
7910.2,-8.3362,2.9032
7921.9,-7.1887,5.0602
7933.6,-10.215,3.5831
7945.3,-8.5531,1.6982
7957,-7.1634,0.84376
7968.8,-7.6286,-1.9106
7980.5,-7.5718,0.71499
7992.2,-7.0883,2.6107
8003.9,-9.5385,5.0903
8015.6,-9.937,4.9992
8027.3,-7.9628,3.2068
8039.1,-5.8752,3.468
8050.8,-6.1342,5.3328
8062.5,-8.6827,2.7935
8074.2,-8.0178,-0.7943
8085.9,-8.0209,1.5153
8097.7,-10.922,2.0283
8109.4,-10.055,2.1453
8121.1,-11.573,1.9841
8132.8,-7.9685,1.2779
8144.5,-5.9807,3.7749
8156.3,-6.8484,2.1645
8168,-9.2001,1.9871
8179.7,-7.3064,4.1787
8191.4,-10.399,3.7496
8203.1,-10.354,3.3445
8214.8,-8.2902,2.0093
8226.6,-7.8739,-1.476
8238.3,-7.0156,2.7694
8250,-9.5236,5.3603
8261.7,-8.8723,5.0092
8273.4,-9.3335,1.0536
8285.2,-10.753,0.19826
8296.9,-10.098,-1.009
8308.6,-9.6674,2.7843
8320.3,-10.518,-0.087199
8332,-12.249,-1.5672
8343.8,-10.907,0.0098712
8355.5,-10.929,-0.071975
8367.2,-10.194,-1.3701
8378.9,-9.9925,-1.5935
8390.6,-11.527,0.56145
8402.3,-9.6179,3.2239
8414.1,-7.4113,4.5607
8425.8,-8.9127,6.7478
8437.5,-10.451,5.2534
8449.2,-10.369,1.7963
8460.9,-8.4407,2.0085
8472.7,-8.2438,2.6128
8484.4,-10.65,0.96861
8496.1,-10.788,0.91867
8507.8,-9.7836,0.9914
8519.5,-8.8563,0.71056
8531.3,-7.6316,0.75054
8543,-8.9137,0.51674
8554.7,-9.038,-0.14109
8566.4,-10.091,-0.29102
8578.1,-7.1004,-1.1483
8589.8,-7.7898,1.4401
8601.6,-8.7426,1.9862
8613.3,-7.5477,2.3051
8625,-8.5102,3.2505
8636.7,-11.968,5.5767
8648.4,-10.779,5.6623
8660.2,-7.9382,0.62057
8671.9,-6.5618,-2.3561
8683.6,-8.3656,1.7784
8695.3,-8.2555,3.3594
8707,-9.4654,2.237
8718.8,-9.7655,-1.8742
8730.5,-9.9487,-0.38622
8742.2,-9.2881,1.2689
8753.9,-11.246,1.3862
8765.6,-10.943,0.66954
8777.3,-9.9859,-1.8649
8789.1,-10.917,-0.17661
8800.8,-11.084,2.6829
8812.5,-10.968,4.9051
8824.2,-10.111,2.2018
8835.9,-10.839,-1.3009
8847.7,-13.314,-1.3535
8859.4,-10.116,3.5653
8871.1,-9.0432,3.6091
8882.8,-8.2213,1.0343
8894.5,-7.8794,-0.76974
8906.3,-8.1169,0.82714
8918,-7.8762,2.1553
8929.7,-8.9902,0.67513
8941.4,-9.2947,3.4937
8953.1,-9.4288,3.8229
8964.8,-7.8532,3.1181
8976.6,-10.631,2.6176
8988.3,-11.609,-0.19766
9000,-11.401,-0.06058
9011.7,-11.688,-0.70209
9023.4,-12.137,-0.26632
9035.2,-8.5687,-0.79112
9046.9,-7.036,3.1047
9058.6,-13.854,4.398
9070.3,-10.887,5.7452
9082,-10.685,4.5586
9093.8,-10.892,2.4675
9105.5,-9.9315,1.375
9117.2,-9.9783,3.0484
9128.9,-10.9,3.2343
9140.6,-14.315,4.1569
9152.3,-14.817,3.6313
9164.1,-12.249,2.5849
9175.8,-10.637,2.2989
9187.5,-10.358,3.2033
9199.2,-12.875,2.6421
9210.9,-11.607,0.71871
9222.7,-9.039,1.8182
9234.4,-9.0287,2.4437
9246.1,-11.145,4.0058
9257.8,-10.606,3.9403
9269.5,-12.273,2.7906
9281.3,-11.912,2.0926
9293,-12.45,3.1
9304.7,-9.8115,3.0242
9316.4,-10.052,3.2211
9328.1,-10.587,3.7365
9339.8,-12.719,4.4148
9351.6,-14.377,4.7952
9363.3,-13.492,3.7464
9375,-12.743,3.8842
9386.7,-13.314,3.8346
9398.4,-10.472,4.8033
9410.2,-9.3943,3.7282
9421.9,-11.991,2.6021
9433.6,-14.599,1.1411
9445.3,-11.568,-0.81644
9457,-8.6009,1.5607
9468.8,-10.219,2.5861
9480.5,-14.881,2.9215
9492.2,-13.846,5.2931
9503.9,-12.211,4.6436
9515.6,-11.014,1.8024
9527.3,-10.401,2.5104
9539.1,-9.9868,1.9308
9550.8,-9.894,0.19676
9562.5,-11.808,-0.14507
9574.2,-9.689,2.7991
9585.9,-9.4946,3.2659
9597.7,-8.3161,-0.0057171
9609.4,-8.2895,-0.65812
9621.1,-9.379,0.58759
9632.8,-10.295,0.06671
9644.5,-10.231,0.35114
9656.3,-12.036,2.0949
9668,-10.771,1.789
9679.7,-8.3937,1.6551
9691.4,-9.9182,-1.1202
9703.1,-8.7707,-3.5865
9714.8,-10.742,-0.36448
9726.6,-11.121,-0.26628
9738.3,-11.02,-3.2209
9750,-9.5446,-6.0053
9761.7,-11.172,-2.0011
9773.4,-12.412,3.0924
9785.2,-12.725,3.1348
9796.9,-13.953,3.5407
9808.6,-10.712,3.2476
9820.3,-12.061,1.7244
9832,-12.469,0.049471
9843.8,-12.101,-1.9004
9855.5,-12.471,-4.0967
9867.2,-12.304,-1.0734
9878.9,-11.061,-2.5464
9890.6,-11.165,-0.0027707
9902.3,-12.473,3.3726
9914.1,-12.338,2.3085
9925.8,-14.215,1.9036
9937.5,-13.769,1.3355
9949.2,-11.048,-6.499
9960.9,-10.375,2.2113
9972.7,-9.8416,4.7831
9984.4,-10.661,2.4746
9996.1,-11.078,-1.0428
10008,-8.4602,-1.3714
10020,-7.3873,-1.6228
10031,-8.6898,-2.5465
10043,-7.6677,-3.4221
10055,-9.8804,-0.7263
10066,-17.163,1.4786
10078,-15.382,1.8302
10090,-13.542,0.030354
10102,-13.699,-1.3372
10113,-12.979,0.36678
10125,-10.989,2.8286
10137,-11.665,3.4568
10148,-12.736,2.9359
10160,-13.416,1.6147
10172,-11.609,1.1109
10184,-10.768,0.26825
10195,-9.9426,-2.5723
10207,-11.019,-1.2987
10219,-11.19,-1.261
10230,-11.476,0.95366
10242,-11.476,2.8786
10254,-13.388,2.522
10266,-9.5858,2.6325
10277,-11.052,4.0945
10289,-15.101,1.9815
10301,-13.656,2.0517
10313,-12.445,0.36858
10324,-13.481,-1.3133
10336,-12.25,-1.2369
10348,-9.3989,-1.767
10359,-9.2845,0.78446
10371,-11.585,1.1326
10383,-15.305,1.9824
10395,-12.431,1.9922
10406,-9.4215,1.3518
10418,-7.741,-1.4928
10430,-10.329,-2.0552
10441,-10.71,-1.396
10453,-13.854,-5.3367
10465,-14.741,-0.87384
10477,-13.231,3.1702
10488,-13.112,3.5456
10500,-14.067,3.441
10512,-11.179,2.1039
10523,-9.7008,0.93579
10535,-12.138,-1.621
10547,-14.311,1.3736
10559,-14.336,1.9603
10570,-11.689,-1.2779
10582,-11.082,-3.7968
10594,-14.422,-1.6825
10605,-12.488,-4.134
10617,-12.603,-2.9077
10629,-12.923,-2.6682
10641,-14.411,-0.6204
10652,-14.29,1.3332
10664,-13.178,-2.1387
10676,-10.448,-6.22
10688,-10.096,-5.3875
10699,-11.131,-3.1792
10711,-13.593,-2.106
10723,-10.781,-5.6876
10734,-11.256,-0.78099
10746,-13.184,-2.6077
10758,-13.205,-2.0839
10770,-15.3,-1.1234
10781,-13.896,-0.80459
10793,-14.316,-0.54948
10805,-14.306,-0.38128
10816,-11.476,2.118
10828,-9.5526,2.3761
10840,-10.191,2.723
10852,-10.831,2.4455
10863,-12.253,1.6628
10875,-14.084,1.9111
10887,-11.479,0.037404
10898,-8.7249,-0.34142
10910,-10.285,0.070456
10922,-12.711,2.3888
10934,-11.912,3.2668
10945,-10.685,0.85239
10957,-11.048,-0.6673
10969,-10.2,-0.39587
10980,-11.907,-0.31942
10992,-11.808,-5.1149
11004,-9.6709,-5.2634
11016,-14.227,-2.2252
11027,-14.469,-4.0515
11039,-13.453,-5.1987
11051,-13.185,-4.0484
11063,-13.201,-2.6398
11074,-13.233,1.0417
11086,-14.608,-2.9617
11098,-16.391,-2.157
11109,-13.244,-2.0049
11121,-10.405,-0.54606
11133,-12.883,0.45514
11145,-9.8244,2.8377
11156,-8.3773,2.9948
11168,-10.74,2.6983
11180,-11.369,2.3166
11191,-10.454,2.8985
11203,-10.75,3.1047
11215,-11.163,2.9708
11227,-10.962,1.044
11238,-11.198,-2.8363
11250,-10.667,-5.3378
11262,-10.196,-2.1782
11273,-10.842,-1.4206
11285,-11.69,-2.8986
11297,-9.568,0.011293
11309,-10.965,0.80705
11320,-13.574,-0.51195
11332,-13.496,-0.53458
11344,-13.607,-0.91981
11355,-14.889,-3.5962
11367,-13.706,-2.3922
11379,-12.837,-0.81988
11391,-9.5857,-0.18103
11402,-10.614,-2.7355
11414,-12.49,-4.1682
11426,-13.764,-4.3825
11438,-10.364,-3.8966
11449,-11.213,-1.7764
11461,-12.611,-0.18186
11473,-13.221,-2.1532
11484,-12.625,-4.8657
11496,-12.572,-2.333
11508,-13.05,-0.76413
11520,-13.729,-1.9778
11531,-12.155,-1.7318
11543,-12.552,-0.2252
11555,-12.337,-0.88982
11566,-12.544,-0.059624
11578,-10.565,1.5804
11590,-12.932,1.7324
11602,-16.482,0.49461
11613,-16.451,-1.4851
11625,-10.4,-1.5585
11637,-9.7495,-0.9654
11648,-11.43,-0.3915
11660,-12.806,2.5533
11672,-9.2625,2.5986
11684,-13.46,1.235
11695,-14.933,0.42704
11707,-11.039,-0.96692
11719,-12.976,1.2038
11730,-14.999,0.39494
11742,-12.337,-4.1317
11754,-11.865,-4.0442
11766,-12.3,0.27068
11777,-13.649,0.53295
11789,-16.026,-1.6629
11801,-13.554,-3.7945
11813,-12.274,-2.9932
11824,-13.722,-3.3767
11836,-12.665,-1.3986
11848,-12.693,-0.77952
11859,-11.36,0.11808
11871,-13.701,0.81246
11883,-13.519,-1.7264
11895,-12.854,-3.445
11906,-14.897,-1.7402
11918,-12.11,-3.0226
11930,-10.619,-3.1997
11941,-13.664,-3.0983
11953,-17.418,-3.8754
11965,-13.965,-1.5974
11977,-14.146,0.063916
11988,-14.556,-0.020712
12000,-15.402,-2.5486
12012,-15.213,-3.5444
12023,-14.6,-2.5799
12035,-14.024,-4.0064
12047,-13.389,-2.2838
12059,-13.147,0.4007
12070,-13.381,0.25551
12082,-12.624,0.29804
12094,-9.1978,-2.4706
12105,-9.8507,-6.163
12117,-13.502,-5.7229
12129,-16.472,-2.4106
12141,-16.721,-4.8573
12152,-13.302,-6.6725
12164,-12.256,-4.5032
12176,-15.156,-2.2337
12188,-15.991,-2.7076
12199,-12.414,-1.8848
12211,-13.623,-1.7511
12223,-11.721,-4.3804
12234,-13.257,-6.7737
12246,-10.648,-4.513
12258,-11.086,-1.1943
12270,-11.557,-0.66637
12281,-13.253,-1.13
12293,-13.358,-3.3642
12305,-12.043,-5.0671
12316,-11.8,-6.0239
12328,-14.595,-4.2526
12340,-14.863,-1.1308
12352,-14.245,0.33031
12363,-13.788,-3.0986
12375,-13.986,-4.7793
12387,-12.86,-2.1067
12398,-12.595,-1.7259
12410,-11.183,-0.88339
12422,-10.95,-1.723
12434,-10.795,-6.6677
12445,-13.097,-5.2104
12457,-12.527,-8.2818
12469,-11.596,-5.057
12480,-12.852,-5.0038
12492,-14.347,-7.0716
12504,-13.703,-5.8984
12516,-13.366,-6.7979
12527,-14.13,-3.3968
12539,-15.37,-0.86858
12551,-12.311,-2.4119
12563,-11.342,-2.6022
12574,-11.219,-2.8008
12586,-13.495,-1.3406
12598,-13.116,-1.7203
12609,-11.725,-5.7221
12621,-11.401,-9.2828
12633,-10.236,-6.3145
12645,-11.181,-5.5929
12656,-15.508,-5.4783
12668,-13.779,-2.2349
12680,-11.157,-0.77602
12691,-12.204,0.12377
12703,-14.187,-3.4488
12715,-13.052,-2.9602
12727,-13.877,0.76967
12738,-13.697,0.80885
12750,-12.292,-1.139
12762,-12.11,-3.0897
12773,-14.129,-2.6787
12785,-12.263,-5.3343
12797,-12.985,-4.675
12809,-13.103,-2.6695
12820,-13.117,-3.1501
12832,-17.178,-4.2056
12844,-14.473,-5.684
12855,-11.438,-5.168
12867,-11.985,-6.5763
12879,-13.204,-6.3662
12891,-11.782,-3.4475
12902,-11.062,-2.2222
12914,-10.578,-3.1854
12926,-11.709,-2.7135
12938,-9.5189,-3.1025
12949,-11.788,-6.8712
12961,-14.436,-5.1768
12973,-14.962,-6.9411
12984,-13.628,-3.5789
12996,-11.559,-5.8164
13008,-8.9973,-6.1311
13020,-9.7706,-1.8484
13031,-12.642,-2.812
13043,-12.984,-1.2857
13055,-13.388,-2.7669
13066,-15.453,-5.207
13078,-17.656,-5.7162
13090,-14.699,-4.4279
13102,-13.593,-1.4815
13113,-11.618,-4.5312
13125,-10.729,-3.4381
13137,-13.726,-3.4448
13148,-14.223,-6.9742
13160,-13.386,-5.1769
13172,-13.001,-2.1426
13184,-15.557,-3.8116
13195,-14.71,-3.9324
13207,-13.121,-3.0738
13219,-16.45,-1.4426
13230,-14.87,-1.0304
13242,-14.267,-2.565
13254,-17.087,-2.9277
13266,-14.487,-2.7548
13277,-11.613,-7.8779
13289,-12.413,-3.4979
13301,-14.126,-2.0265
13313,-13.332,-1.0668
13324,-13.108,-0.53154
13336,-10.092,-2.3926
13348,-13.438,-4.6078
13359,-15.432,-8.8864
13371,-14.821,-3.3788
13383,-14.612,-3.1145
13395,-14.84,-4.4961
13406,-14.859,-5.1994
13418,-17.604,-5.4209
13430,-15.803,-8.2857
13441,-14.068,-6.9522
13453,-14.287,-5.5573
13465,-12.696,-5.2591
13477,-12.835,-2.8562
13488,-12.055,-1.6639
13500,-13.025,-3.0397
13512,-13.09,-2.6771
13523,-12.466,-5.4899
13535,-13.781,-7.4337
13547,-17.413,-7.5219
13559,-13.292,-3.0541
13570,-12.305,-5.0009
13582,-12.926,-8.7242
13594,-17.205,-6.5818
13605,-15.701,-5.6252
13617,-17.946,-7.4808
13629,-13.053,-3.5686
13641,-13.058,-1.716
13652,-15.271,-2.4891
13664,-14.032,-2.6686
13676,-14.152,-5.8998
13688,-15,-6.6647
13699,-13.61,-2.4233
13711,-13.311,-2.9784
13723,-14.973,-4.025
13734,-16.068,-4.7893
13746,-16.83,-7.0661
13758,-16.982,-10.354
13770,-13.058,-5.5127
13781,-12.081,-3.5989
13793,-14.994,-3.2734
13805,-14.048,-3.3102
13816,-12.248,-3.3264
13828,-11.562,-1.8292
13840,-11.636,-2.0003
13852,-14.498,-2.7994
13863,-16.403,-3.9045
13875,-19.27,-5.1834
13887,-17.291,-3.4475
13898,-16.284,-1.997
13910,-14.864,-3.314
13922,-14.051,-4.857
13934,-14.615,-2.8534
13945,-15.835,-2.6583
13957,-15.734,-4.8042
13969,-13.724,-8.1326
13980,-15.404,-4.9527
13992,-16.555,-7.1543
14004,-15.206,-9.1035
14016,-17.766,-5.2671
14027,-16.157,-3.0503
14039,-17.171,-5.0168
14051,-15.711,-6.4626
14063,-12.268,-5.9565
14074,-14.018,-5.2598
14086,-13.67,-3.7526
14098,-15.514,-1.2301
14109,-12.693,-2.3775
14121,-12.755,-7.2619
14133,-17.117,-4.2151
14145,-18.029,-6.2185
14156,-13.951,-5.9179
14168,-13.826,-6.4223
14180,-14.966,-6.8358
14191,-16.153,-6.7498
14203,-15.807,-5.6319
14215,-15.362,-5.9536
14227,-16.109,-8.7999
14238,-13.485,-5.4246
14250,-15.687,-4.7652
14262,-14.527,-5.8615
14273,-12.082,-8.0016
14285,-13.439,-7.0346
14297,-15.28,-6.2186
14309,-16.838,-7.9155
14320,-16.459,-9.1847
14332,-15.081,-5.9639
14344,-15.08,-4.3824
14355,-16.726,-5.7566
14367,-18.29,-6.717
14379,-15.315,-6.6671
14391,-13.492,-4.3823
14402,-14.927,-4.5189
14414,-17.928,-5.2941
14426,-18.493,-5.5785
14438,-18.167,-7.113
14449,-16.03,-5.5765
14461,-12.511,-4.2479
14473,-14.261,-4.2329
14484,-22.364,-1.5308
14496,-15.33,-2.4252
14508,-15.079,-5.0744
14520,-16.899,-5.5517
14531,-16.321,-5.8286
14543,-16.076,-6.4345
14555,-16.743,-4.9104
14566,-18.898,-2.9485
14578,-16.848,-5.6801
14590,-16.324,-6.3188
14602,-14.951,-6.6256
14613,-14.842,-8.9719
14625,-14.796,-8.2862
14637,-17.499,-5.7541
14648,-19.772,-3.1967
14660,-17.718,-2.1593
14672,-15.505,-2.9713
14684,-16.363,-7.1036
14695,-17.487,-10.408
14707,-17.31,-14.014
14719,-15.617,-7.8896
14730,-15.721,-6.6654
14742,-16.385,-6.6096
14754,-15.735,-6.418
14766,-16.546,-6.3811
14777,-17.3,-3.658
14789,-16.321,-1.8728
14801,-15.121,-3.5979
14813,-16.244,-4.8382
14824,-19.774,-3.2757
14836,-18.573,-4.9134
14848,-16.142,-4.746
14859,-18.94,-3.1299
14871,-19.003,-5.3504
14883,-22.081,-6.7043
14895,-19.045,-6.1744
14906,-16.062,-7.3968
14918,-15.464,-5.1278
14930,-15.653,-2.4773
14941,-14.815,-0.96321
14953,-16.936,-3.0434
14965,-18.268,-6.23
14977,-17.376,-4.3776
14988,-19.345,-4.2033
15000,-20.868,-5.7395
15012,-21.275,-4.0174
15023,-20.486,-2.4232
15035,-16.024,-3.8257
15047,-15.254,-5.6053
15059,-16.431,-5.5063
15070,-17.611,-5.4531
15082,-18.091,-3.6473
15094,-19.974,-2.2765
15105,-17.375,-2.4816
15117,-18.164,-2.793
15129,-20.481,-9.0675
15141,-17.115,-8.0665
15152,-15.702,-6.5129
15164,-17.264,-4.9473
15176,-18.532,-5.6552
15188,-18.359,-6.2
15199,-18.793,-5.8144
15211,-16.443,-5.0031
15223,-17.48,-4.6507
15234,-18.729,-3.5355
15246,-18.555,-2.6572
15258,-17.758,-8.6389
15270,-18.367,-10.103
15281,-18.318,-7.103
15293,-19.03,-9.4648
15305,-20.94,-7.9125
15316,-19.058,-6.2221
15328,-17.537,-4.4855
15340,-19.602,-7.4655
15352,-18.886,-6.3403
15363,-17.179,-5.6254
15375,-15.775,-4.4685
15387,-17.601,-2.3558
15398,-14.395,-4.141
15410,-16.75,-5.9623
15422,-18.417,-5.6418
15434,-17.092,-4.9677
15445,-18.298,-2.6549
15457,-18.49,-4.401
15469,-19.09,-5.8171
15480,-19.46,-3.5581
15492,-17.541,-4.0686
15504,-17.909,-5.7283
15516,-21.603,-7.0097
15527,-18.508,-6.934
15539,-16.458,-6.4494
15551,-18.338,-5.2081
15563,-18.536,-2.3699
15574,-19.452,-1.3169
15586,-20.465,-3.6656
15598,-21.895,-5.9584
15609,-19.172,-5.7445
15621,-18.604,-5.1892
15633,-21.278,-7.4319
15645,-21.143,-5.7762
15656,-19.169,-3.5771
15668,-18.927,-3.2024
15680,-18.204,-1.6541
15691,-16.818,-1.0164
15703,-16.545,-1.6328
15715,-19.426,-2.8044
15727,-21.011,-4.2455
15738,-19.039,-5.1343
15750,-19.167,-4.2481
15762,-19.455,-6.9168
15773,-19.065,-7.8687
15785,-18.642,-7.8409
15797,-21.11,-4.2811
15809,-21.459,-5.2648
15820,-18.176,-7.0622
15832,-17.828,-6.6509
15844,-16.936,-5.8107
15855,-16.863,-7.2484
15867,-18.503,-6.3006
15879,-20.209,-6.3527
15891,-22.122,-4.8552
15902,-19.33,-5.1132
15914,-18.064,-8.1577
15926,-19.304,-10.723
15938,-21.505,-6.544
15949,-18.36,-6.0033
15961,-16.748,-5.7352
15973,-19.198,-8.7362
15984,-21.671,-7.8595
15996,-21.563,-8.4958
16008,-19.198,-9.717
16020,-17.918,-6.6693
16031,-17.684,-3.428
16043,-17.642,-1.7405
16055,-17.181,-3.4382
16066,-17.602,-4.3342
16078,-19.731,-7.3765
16090,-18.994,-9.6712
16102,-17.78,-9.5989
16113,-16.238,-8.7351
16125,-17.918,-5.0918
16137,-20.645,-4.1712
16148,-19.715,-6.8363
16160,-19.738,-11.076
16172,-23.105,-12.543
16184,-22.457,-9.6139
16195,-20.12,-9.6745
16207,-17.567,-7.3414
16219,-18.188,-8.8586
16230,-22.273,-10.918
16242,-21.06,-9.1757
16254,-19.749,-7.5073
16266,-20.825,-9.2823
16277,-19.988,-8.1327
16289,-20.212,-7.2022
16301,-21.821,-7.8149
16313,-24.897,-8.6834
16324,-24.576,-8.4279
16336,-23.649,-9.8516
16348,-21.521,-9.8268
16359,-20.876,-6.9524
16371,-19.937,-6.1519
16383,-16.842,-6.0799
16395,-17.409,-5.4355
16406,-19.929,-5.4656
16418,-18.045,-6.7454
16430,-16.235,-4.7256
16441,-16.708,-5.7394
16453,-17.458,-8.0323
16465,-17.231,-5.3379
16477,-19.845,-5.7132
16488,-19.086,-8.6632
16500,-18.496,-9.711
16512,-24.323,-6.5354
16523,-22.384,-5.4495
16535,-21.524,-8.0558
16547,-21.126,-7.8918
16559,-23.426,-6.2303
16570,-21.042,-5.8737
16582,-20.525,-7.3681
16594,-19.926,-8.7071
16605,-18.84,-8.599
16617,-19.596,-9.8815
16629,-19.867,-7.169
16641,-21.378,-2.7266
16652,-20.117,-1.8068
16664,-21.661,-2.2624
16676,-21.944,-2.8724
16688,-22.169,-2.9691
16699,-20.544,-4.7883
16711,-21.9,-6.978
16723,-19.637,-6.2034
16734,-18.614,-5.12
16746,-20.676,-4.9828
16758,-22.443,-5.7654
16770,-22.514,-8.0783
16781,-19.621,-10.1
16793,-18.043,-10.582
16805,-19.755,-11.096
16816,-19.525,-9.016
16828,-20.28,-9.5052
16840,-20.007,-9.679
16852,-19.733,-8.3137
16863,-19.931,-9.9097
16875,-21.16,-13.983
16887,-20.566,-9.4951
16898,-23.657,-8.0311
16910,-22.882,-7.5203
16922,-19.859,-9.6896
16934,-18.801,-6.0516
16945,-18.12,-9.1953
16957,-19.746,-5.5147
16969,-20.186,-12.018
16980,-21.019,-12.965
16992,-20.295,-10.142
17004,-20.718,-10.713
17016,-20.749,-7.8107
17027,-21.562,-8.2628
17039,-21.722,-9.7191
17051,-22.499,-7.6816
17063,-20.308,-6.1202
17074,-19.266,-6.1078
17086,-18.752,-4.5439
17098,-18.208,-3.9531
17109,-20.429,-5.5743
17121,-20.809,-10.06
17133,-21.178,-13.064
17145,-20.307,-10.445
17156,-20.348,-9.0015
17168,-21.788,-12.102
17180,-25.29,-13.451
17191,-21.794,-11.075
17203,-19.182,-9.0272
17215,-18.809,-7.9394
17227,-19.616,-9.3109
17238,-20.833,-8.6074
17250,-23.35,-6.3262
17262,-24.247,-6.0415
17273,-20.558,-7.2796
17285,-19.466,-6.7834
17297,-20.667,-6.407
17309,-25.982,-7.9607
17320,-24.675,-7.8018
17332,-23.082,-8.3913
17344,-24.98,-9.0379
17355,-23.414,-8.1344
17367,-21.953,-7.5438
17379,-22.013,-10.545
17391,-21.063,-9.9372
17402,-21.439,-7.916
17414,-20.965,-7.9234
17426,-21.611,-7.6969
17438,-24.679,-9.9931
17449,-22.382,-7.4637
17461,-20.122,-8.0533
17473,-20.64,-9.5435
17484,-25.186,-9.6013
17496,-25.079,-6.6075
17508,-23.137,-6.539
17520,-20.291,-7.7345
17531,-20.686,-7.2125
17543,-20.82,-7.4229
17555,-21.89,-9.8295
17566,-23.199,-11.065
17578,-20.988,-8.1903
17590,-23.023,-10.6
17602,-23.259,-13.153
17613,-27.434,-11.393
17625,-23.096,-7.7064
17637,-23.463,-7.7981
17648,-22.94,-10.793
17660,-19.486,-9.2902
17672,-21.407,-9.8326
17684,-23.644,-6.7583
17695,-21.437,-7.5364
17707,-18.137,-9.5163
17719,-19.874,-11.456
17730,-21.765,-14.158
17742,-22.021,-11.571
17754,-21.668,-12.021
17766,-23.846,-12.186
17777,-21.262,-11.977
17789,-21.188,-8.0968
17801,-23.281,-8.5615
17813,-23.659,-9.3492
17824,-23.279,-9.5149
17836,-19.407,-11.402
17848,-19.548,-10.247
17859,-23.444,-10.86
17871,-22.12,-10.898
17883,-20.494,-8.8247
17895,-23.38,-8.8204
17906,-23.644,-9.2524
17918,-21.982,-12.941
17930,-19.888,-12.864
17941,-21.951,-9.764
17953,-20.021,-9.021
17965,-23.828,-8.1895
17977,-24.104,-9.231
17988,-23.677,-9.7809
18000,-22.972,-10.266
18012,-21.935,-7.5627
18023,-22.045,-7.6914
18035,-23.027,-9.5965
18047,-23.186,-8.8698
18059,-25.861,-11.824
18070,-26.833,-11.921
18082,-24.439,-10.233
18094,-23.359,-8.6902
18105,-23.337,-9.5619
18117,-21.997,-9.8529
18129,-21.8,-9.7427
18141,-23.598,-9.6536
18152,-25.297,-11.171
18164,-23.104,-10.05
18176,-23.781,-11.401
18188,-23.341,-8.5626
18199,-20.687,-9.229
18211,-20.691,-11.923
18223,-22.734,-14.121
18234,-23.819,-12.099
18246,-23.17,-10.972
18258,-22.262,-9.7391
18270,-19.98,-11.41
18281,-22.076,-11.85
18293,-25.498,-9.4498
18305,-23.501,-7.9422
18316,-22.808,-9.2014
18328,-22.032,-9.6385
18340,-22.674,-8.7906
18352,-24.77,-8.7461
18363,-22.779,-7.7498
18375,-23.065,-7.7326
18387,-23.438,-10.408
18398,-23.679,-12.905
18410,-25.962,-11.052
18422,-25.412,-12.675
18434,-26.696,-8.267
18445,-24.125,-7.5751
18457,-21.907,-9.2397
18469,-23.012,-8.6254
18480,-23.877,-9.867
18492,-23.615,-8.546
18504,-21.916,-10.188
18516,-22.822,-9.5808
18527,-24.946,-9.2382
18539,-23.664,-9.6984
18551,-25.456,-9.6944
18563,-23.447,-9.4201
18574,-21.568,-10.202
18586,-24.696,-9.0916
18598,-23.802,-8.1537
18609,-23.442,-8.5204
18621,-23.509,-9.1358
18633,-23.062,-8.7819
18645,-20.837,-9.7548
18656,-20.844,-10.943
18668,-20.351,-11.031
18680,-21.948,-12.039
18691,-21.899,-12.577
18703,-21.832,-10.301
18715,-21.595,-7.7482
18727,-21.232,-9.2935
18738,-23.519,-9.2335
18750,-24.836,-8.8881
18762,-25.295,-6.8047
18773,-24.691,-8.6992
18785,-23.838,-9.3751
18797,-25.785,-8.9209
18809,-21.685,-9.6422
18820,-20.014,-10.195
18832,-23.16,-11.345
18844,-20.883,-11.351
18855,-19.349,-8.4131
18867,-21.056,-10.518
18879,-22.629,-9.0012
18891,-24.952,-10.058
18902,-24.013,-12.419
18914,-24.975,-13.191
18926,-21.395,-14.14
18938,-21.135,-10.881
18949,-24.09,-9.8576
18961,-25.157,-7.1949
18973,-24.902,-8.2824
18984,-24.847,-9.964
18996,-26.233,-10.562
19008,-29.339,-9.621
19020,-25.456,-10.336
19031,-24.272,-12.533
19043,-22.921,-10.969
19055,-21.614,-9.9671
19066,-22.374,-12.95
19078,-22.877,-12.759
19090,-24,-11.939
19102,-24.779,-11.52
19113,-23.782,-9.1459
19125,-26.648,-9.7085
19137,-23.035,-11.84
19148,-23.578,-12.195
19160,-25.228,-11.65
19172,-22.749,-10.826
19184,-21.293,-11.193
19195,-23.346,-11.992
19207,-23.525,-10.406
19219,-25.717,-9.2408
19230,-25.418,-8.564
19242,-23.05,-9.3737
19254,-22.022,-11.749
19266,-21.677,-12.044
19277,-23.786,-8.1989
19289,-24.961,-7.4537
19301,-25.895,-9.4988
19313,-25.824,-9.8505
19324,-25.645,-9.8219
19336,-23.225,-9.1642
19348,-22.557,-10.469
19359,-26.058,-11.124
19371,-25.343,-9.861
19383,-26.107,-11.712
19395,-25.622,-11.069
19406,-22.817,-12.961
19418,-21.464,-14.433
19430,-20.737,-13.276
19441,-21.916,-12.49
19453,-22.734,-11.162
19465,-23.077,-11.206
19477,-23.938,-8.348
19488,-22.652,-6.5679
19500,-24.17,-9.7898
19512,-27.127,-12.753
19523,-27.116,-13.547
19535,-23.656,-9.2661
19547,-25.185,-9.0501
19559,-25.926,-9.5534
19570,-25.922,-10.323
19582,-23.871,-11.192
19594,-24.06,-12.325
19605,-26.873,-8.4403
19617,-28.251,-9.1674
19629,-23.498,-9.4115
19641,-25.609,-8.8135
19652,-22.112,-13.912
19664,-23.192,-11.935
19676,-23.524,-8.175
19688,-24.517,-6.956
19699,-24.155,-9.627
19711,-23.735,-8.6606
19723,-26.265,-10.478
19734,-28.509,-11.157
19746,-25.589,-9.7883
19758,-24.839,-7.5001
19770,-24.803,-9.128
19781,-23.658,-10.063
19793,-25.692,-11.296
19805,-24.031,-14.474
19816,-23.401,-12.64
19828,-25.028,-7.9858
19840,-23.838,-7.8247
19852,-25.031,-9.6833
19863,-24.353,-11.613
19875,-23.35,-14.222
19887,-25.427,-12.675
19898,-25.916,-11.224
19910,-23.364,-11.668
19922,-21.932,-13.185
19934,-24.034,-13.405
19945,-25.019,-14.193
19957,-26.478,-11.384
19969,-26.606,-10.442
19980,-24.304,-9.1963
19992,-26.66,-8.6561
20004,-31.127,-10.096
20016,-29.063,-10.299
20027,-26.082,-11.529
20039,-28.439,-7.7749
20051,-24.973,-7.6732
20063,-22.071,-11.129
20074,-24.024,-11.702
20086,-27.041,-12.273
20098,-27.359,-15.662
20109,-25.28,-13.002
20121,-24.997,-10.03
20133,-22.703,-8.1652
20145,-22.236,-7.2468
20156,-23.613,-8.3319
20168,-23.065,-12.51
20180,-21.982,-12.401
20191,-24.207,-10.488
20203,-22.543,-7.5939
20215,-21.59,-7.5176
20227,-23.649,-7.7489
20238,-30.528,-7.9217
20250,-24.327,-10.915
20262,-21.875,-15.248
20273,-22.476,-13.979
20285,-25.919,-10.259
20297,-25.674,-10.817
20309,-26.118,-8.9722
20320,-23.844,-10.273
20332,-22.086,-10.85
20344,-23.172,-13.038
20355,-26.047,-12.467
20367,-25.613,-11.306
20379,-26.971,-9.5587
20391,-27.262,-11.894
20402,-24.286,-10.865
20414,-24.607,-11.156
20426,-26.03,-11.383
20438,-25.504,-10.244
20449,-26.424,-11.651
20461,-27.31,-9.2388
20473,-26.21,-8.6048
20484,-25.922,-10.163
20496,-25.308,-9.5726
20508,-25.424,-12.773
20520,-28.053,-10.794
20531,-26.454,-8.7503
20543,-24.701,-9.3573
20555,-25.92,-10.576
20566,-27.787,-12.026
20578,-23.864,-11.883
20590,-21.929,-14.762
20602,-22.277,-13.155
20613,-26.021,-12.085
20625,-27.682,-12.666
20637,-25.169,-10.453
20648,-24.811,-11.641
20660,-25.227,-8.0808
20672,-25.004,-8.2846
20684,-24.215,-14.381
20695,-22.516,-13.508
20707,-25.639,-10.42
20719,-26.611,-9.4294
20730,-30.074,-11.801
20742,-30.204,-11.555
20754,-26.208,-11.777
20766,-24.04,-12.443
20777,-25.731,-13.742
20789,-25.123,-7.5928
20801,-25.679,-5.5272
20813,-24.803,-5.1568
20824,-23.486,-5.427
20836,-24.432,-7.5618
20848,-27.435,-10.747
20859,-28.871,-13.104
20871,-25.708,-13.071
20883,-26.397,-14.507
20895,-25.271,-11.584
20906,-24.104,-10.939
20918,-24.373,-12.664
20930,-28.056,-12.284
20941,-25.998,-12.88
20953,-24.892,-10.853
20965,-25.469,-9.1069
20977,-27.417,-13.04
20988,-27.79,-14.899
21000,-26.635,-12.267
21012,-26.835,-10.32
21023,-27.793,-9.5974
21035,-27.849,-8.994
21047,-28.332,-11.801
21059,-27.251,-13.017
21070,-27.579,-12.729
21082,-28.291,-11.217
21094,-28.594,-10.359
21105,-28.672,-9.0465
21117,-27.276,-9.4186
21129,-27.108,-10.067
21141,-26.019,-10.066
21152,-25.894,-10.102
21164,-27.057,-8.3259
21176,-27.486,-7.9794
21188,-26.615,-8.954
21199,-27.566,-11.099
21211,-27.519,-13.905
21223,-27.492,-13.612
21234,-26.095,-11.567
21246,-27.253,-10.049
21258,-27.441,-10.607
21270,-25.147,-10.521
21281,-26.196,-10.067
21293,-29.904,-11.792
21305,-23.005,-12.69
21316,-23.149,-12.218
21328,-23.278,-11.947
21340,-24.446,-13.212
21352,-27.411,-13.837
21363,-27.503,-12.414
21375,-26.938,-12.85
21387,-27.611,-11.59
21398,-25.983,-10.24
21410,-25.048,-10.513
21422,-28.413,-10.66
21434,-29.681,-8.7719
21445,-28.429,-8.4639
21457,-27.185,-11.772
21469,-25.35,-12.75
21480,-26.879,-12.19
21492,-27.637,-11.224
21504,-29.344,-11.798
21516,-27.094,-12.353
21527,-26.064,-9.3809
21539,-26.76,-10.836
21551,-26.387,-14.275
21563,-25.497,-12.481
21574,-25.943,-12.61
21586,-29.333,-12.7
21598,-31.291,-12.158
21609,-29.933,-11.037
21621,-27.378,-13.307
21633,-27.935,-14.799
21645,-27.341,-13.058
21656,-26.354,-14.339
21668,-27.423,-12.654
21680,-28.725,-11.702
21691,-28.391,-14.137
21703,-28.351,-14.594
21715,-29.712,-13.522
21727,-29.815,-14.757
21738,-25.935,-15.216
21750,-24.645,-15.834
21762,-28.642,-15.219
21773,-29.964,-14.779
21785,-29.749,-15.837
21797,-26.93,-11.079
21809,-26.609,-10.057
21820,-24.258,-10.883
21832,-25.004,-11.288
21844,-26.039,-12.463
21855,-28.752,-14.636
21867,-26.011,-14.363
21879,-22.927,-17.428
21891,-24.248,-12.907
21902,-26.043,-10.875
21914,-26.182,-10.075
21926,-26.481,-10.658
21938,-26.408,-11.392
21949,-26.381,-11.34
21961,-26.138,-13.835
21973,-29.383,-11.968
21984,-29.902,-10.258
21996,-27.602,-12.061
22008,-28.09,-12.989
22020,-28.249,-14.746
22031,-27.991,-16.343
22043,-27.921,-17.589
22055,-27.978,-13.694
22066,-27.485,-15.389
22078,-27.096,-15.012
22090,-26.644,-12.894
22102,-28.144,-11.051
22113,-30.243,-10.854
22125,-27.21,-11.586
22137,-25.2,-13.884
22148,-24.344,-9.1554
22160,-26.474,-9.7932
22172,-27.491,-12.5
22184,-26.53,-13.027
22195,-28.786,-13.309
22207,-27.473,-11.116
22219,-26.716,-8.3074
22230,-28.195,-10.646
22242,-27.605,-15.085
22254,-27.615,-12.936
22266,-25.909,-12.201
22277,-23.842,-14.778
22289,-23.681,-14.85
22301,-24.282,-14.808
22313,-27.59,-16.08
22324,-28.441,-15.36
22336,-27.622,-14.636
22348,-30.139,-12.243
22359,-26.957,-12.362
22371,-24.412,-17.936
22383,-25.724,-15.797
22395,-25.868,-15.967
22406,-27.575,-17.106
22418,-29.586,-14.83
22430,-28.295,-13.359
22441,-29.527,-14
22453,-28.473,-12.593
22465,-27.871,-12.513
22477,-27.283,-12.549
22488,-25.926,-10.963
22500,-27.772,-14.74
22512,-26.305,-15.379
22523,-28.533,-15.336
22535,-26.364,-15.956
22547,-25.48,-13.594
22559,-26.88,-11.895
22570,-29.075,-9.9167
22582,-29.765,-11.476
22594,-24.876,-12.468
22605,-27.874,-13.498
22617,-26.685,-15.255
22629,-29.104,-13.139
22641,-28.934,-14.221
22652,-27.361,-16.355
22664,-24.395,-15.765
22676,-22.853,-13.432
22688,-27.914,-13.078
22699,-28.104,-11.646
22711,-27.033,-9.9577
22723,-26.55,-10.866
22734,-27.561,-12.114
22746,-27.513,-10.705
22758,-27.072,-11.947
22770,-27.616,-9.6994
22781,-25.845,-10.574
22793,-25.818,-17.181
22805,-25.435,-12.835
22816,-24.622,-13.202
22828,-24.61,-14.875
22840,-24.624,-13.592
22852,-25.906,-13.907
22863,-26.422,-13.473
22875,-26.538,-13.831
22887,-27.581,-16.092
22898,-24.851,-13.962
22910,-24.572,-13.3
22922,-27.625,-12.611
22934,-28.69,-10.855
22945,-28.589,-11.154
22957,-27.961,-12.219
22969,-29.217,-14.089
22980,-28.633,-11.864
22992,-29.763,-12.047
23004,-28.579,-13.018
23016,-26.266,-12.346
23027,-29.99,-11.517
23039,-27.54,-9.6263
23051,-29.881,-9.982
23063,-27.087,-10.74
23074,-26.949,-10.796
23086,-29.504,-12.208
23098,-30.976,-14.86
23109,-30.131,-12.859
23121,-29.27,-9.3506
23133,-26.75,-8.8833
23145,-27.969,-12.866
23156,-29.445,-14.618
23168,-25.715,-16.243
23180,-26.46,-14.711
23191,-25.862,-13.969
23203,-26.736,-15.703
23215,-32.512,-12.123
23227,-28.61,-10.521
23238,-28.234,-11.184
23250,-29.932,-11.328
23262,-26.243,-12.453
23273,-24.165,-14.505
23285,-26.16,-15.124
23297,-28.955,-16.393
23309,-29.394,-13.334
23320,-28.493,-9.7123
23332,-26.37,-9.4049
23344,-26.761,-11.696
23355,-28.114,-14.022
23367,-28.303,-14.785
23379,-27.531,-18.841
23391,-29.824,-18.96
23402,-28.175,-15.39
23414,-25.82,-12.642
23426,-25.193,-13.457
23438,-26.099,-14.527
23449,-27.255,-16.057
23461,-28.711,-15.838
23473,-28.622,-13.327
23484,-26.476,-13.349
23496,-25.54,-16.67
23508,-25.375,-16.094
23520,-27.67,-15.951
23531,-28.729,-15.252
23543,-27.814,-14.349
23555,-28.6,-13.43
23566,-28.35,-14.948
23578,-29.887,-15.645
23590,-29.815,-12.624
23602,-27.802,-11.889
23613,-27.289,-13.567
23625,-29.548,-13.49
23637,-27.184,-11.074
23648,-24,-12.402
23660,-27.055,-14.021
23672,-30.371,-17.546
23684,-28.36,-16.297
23695,-27.856,-15.618
23707,-28.021,-18.423
23719,-26.319,-13.694
23730,-26.82,-10.264
23742,-28.113,-8.6723
23754,-26.067,-9.7316
23766,-26.124,-10.542
23777,-26.858,-11.332
23789,-26.921,-12.611
23801,-26.95,-9.5517
23813,-25.682,-10.089
23824,-28.711,-11.739
23836,-31.309,-14.735
23848,-30.244,-13.476
23859,-27.698,-15.227
23871,-27.463,-15.765
23883,-29.547,-15.401
23895,-29.486,-14.788
23906,-29.522,-14.918
23918,-29.535,-15.737
23930,-29.226,-13.755
23941,-29.366,-16.536
23953,-29.258,-16.25
23965,-29.727,-15.134
23977,-32.138,-13.985
23988,-29.376,-12.417
