FFT,Power Spectrum
Frequency[Hz],Level-L[dB],Level-R[dB]
11.719,-21.005,-22.548
23.438,-0.89233,-3.7791
35.156,-0.39451,-0.54346
46.875,6.362,5.8409
58.594,5.375,4.306
70.313,2.4291,4.7485
82.031,4.592,8.7395
93.75,10.896,11.614
105.47,9.4161,8.8829
117.19,10.517,9.948
128.91,14.068,13.4
140.63,15.868,14.669
152.34,9.9255,10.023
164.06,4.4396,8.7759
175.78,3.6899,9.1769
187.5,9.1487,12.095
199.22,11.542,12.776
210.94,8.3129,13.192
222.66,5.7374,14.416
234.38,6.6061,13.343
246.09,8.1187,12.761
257.81,12.272,11.261
269.53,11.768,9.6521
281.25,10.757,14.106
292.97,9.1128,16.1
304.69,6.9343,14.218
316.41,7.1668,13.655
328.13,6.0078,13.179
339.84,5.8063,14.443
351.56,2.8017,13.287
363.28,1.8824,10.263
375,0.0068451,10.515
386.72,5.1024,13.697
398.44,5.409,12.33
410.16,3.4458,11.715
421.88,4.6187,12.511
433.59,7.797,11.01
445.31,7.1303,12.722
457.03,2.3783,14.244
468.75,5.2663,14.438
480.47,3.9644,12.612
492.19,4.2263,12.464
503.91,5.9498,12.669
515.63,4.6117,11.829
527.34,0.673,11.984
539.06,4.0062,11.335
550.78,8.7108,14.089
562.5,9.0167,14.8
574.22,4.9972,14.605
585.94,2.8822,12.792
597.66,0.98815,11.069
609.38,2.991,14.085
621.09,2.783,14.78
632.81,4.4393,13.084
644.53,4.7746,14.574
656.25,2.9848,15.517
667.97,5.4671,13.883
679.69,5.6821,13.489
691.41,6.9989,12.972
703.13,5.3869,12.728
714.84,4.062,10.284
726.56,5.5371,12.228
738.28,6.7597,14.271
750,3.651,14.445
761.72,4.4287,13.459
773.44,4.3548,12.824
785.16,6.8623,16.017
796.88,4.63,15.862
808.59,4.8243,13.237
820.31,6.7055,13.758
832.03,6.2977,12.61
843.75,4.2204,13.197
855.47,5.4323,13.912
867.19,7.7631,13.859
878.91,6.3607,12.067
890.63,2.899,12.135
902.34,7.112,12.637
914.06,10.043,14.79
925.78,4.8603,14.572
937.5,5.5957,13.041
949.22,7.1715,14.806
960.94,6.6127,14.275
972.66,5.2455,14.214
984.38,5.5247,16.263
996.09,7.3388,14.878
1007.8,4.9325,10.379
1019.5,5.1059,8.8695
1031.3,5.0192,12.868
1043,3.5621,11.451
1054.7,8.1845,12.828
1066.4,9.3404,15.009
1078.1,7.1657,13.613
1089.8,6.754,13.218
1101.6,7.1093,13.425
1113.3,8.1323,13.87
1125,8.9925,14.401
1136.7,7.9054,16.354
1148.4,5.4834,14.883
1160.2,3.0513,12.527
1171.9,1.8729,12.933
1183.6,2.7543,13.931
1195.3,0.41214,13.588
1207,6.296,13.254
1218.8,8.3212,11.852
1230.5,2.8121,12.243
1242.2,1.9602,12.347
1253.9,2.5684,10.496
1265.6,2.6433,11.754
1277.3,2.2682,10.533
1289.1,5.9634,14.137
1300.8,7.9855,14.162
1312.5,6.5208,11.773
1324.2,2.8274,11.187
1335.9,1.5115,10.822
1347.7,3.997,11.255
1359.4,5.287,10.944
1371.1,5.4135,12.938
1382.8,4.5149,11.577
1394.5,3.2092,12.486
1406.3,2.8735,12.167
1418,6.9095,11.579
1429.7,8.8174,11.056
1441.4,5.0828,10.06
1453.1,2.122,10.312
1464.8,6.1823,12.681
1476.6,3.7218,13.893
1488.3,2.1332,12.279
1500,5.1804,11.755
1511.7,5.3017,12.646
1523.4,4.0862,12.623
1535.2,3.6895,11.779
1546.9,1.6313,10.48
1558.6,2.1577,12.424
1570.3,6.5124,12.946
1582,4.2477,12.54
1593.8,2.9203,12.132
1605.5,1.2133,11.441
1617.2,1.9169,8.6868
1628.9,4.317,10.84
1640.6,6.4843,11.841
1652.3,6.1842,10.928
1664.1,2.6953,13.664
1675.8,2.9567,14.299
1687.5,3.1498,11.764
1699.2,0.71408,13.219
1710.9,2.4549,13.588
1722.7,2.9543,14.061
1734.4,1.5629,13.168
1746.1,1.5296,11.112
1757.8,-0.024206,10.247
1769.5,1.4189,9.9506
1781.3,3.0309,11.642
1793,8.186,10.007
1804.7,6.0826,8.3951
1816.4,1.5103,8.1046
1828.1,1.1942,8.7312
1839.8,3.6993,9.9335
1851.6,4.5569,10.233
1863.3,3.5716,9.8798
1875,2.4493,10.957
1886.7,4.5421,11.422
1898.4,2.1837,11.113
1910.2,4.8745,11.373
1921.9,3.1448,11.051
1933.6,0.2819,11.612
1945.3,-0.29709,9.7019
1957,2.0382,7.6176
1968.8,3.6136,7.4716
1980.5,6.3104,6.6865
1992.2,4.7313,11.907
2003.9,1.4226,11.987
2015.6,1.3671,11.337
2027.3,1.8667,10.444
2039.1,2.472,9.5119
2050.8,4.3901,10.373
2062.5,5.3203,9.627
2074.2,1.9799,10.524
2085.9,2.811,7.8258
2097.7,2.5946,7.4257
2109.4,1.6121,7.0077
2121.1,3.469,8.8877
2132.8,4.4174,10.785
2144.5,0.67445,10.765
2156.3,0.64824,8.2557
2168,4.5924,7.1283
2179.7,6.4245,8.9853
2191.4,6.5969,10.311
2203.1,4.6945,9.3471
2214.8,-1.8392,9.2701
2226.6,0.05613,7.5898
2238.3,3.2531,6.3512
2250,2.4298,5.4449
2261.7,4.5815,7.0154
2273.4,4.0153,11.913
2285.2,2.1853,10.766
2296.9,4.4808,10.379
2308.6,5.8218,11.768
2320.3,2.9405,12.146
2332,-1.349,10.306
2343.8,1.1145,8.9468
2355.5,2.3185,10.384
2367.2,0.38162,10.607
2378.9,0.76889,9.3671
2390.6,0.81818,11.166
2402.3,0.58345,8.9343
2414.1,0.33242,7.8756
2425.8,-3.2168,9.2936
2437.5,1.4056,7.0064
2449.2,2.1046,7.468
2460.9,-0.74791,8.1999
2472.7,-0.98945,6.0657
2484.4,-0.074077,5.6994
2496.1,0.85886,10.311
2507.8,-0.42,11.705
2519.5,1.291,12.988
2531.3,1.4995,11.263
2543,0.28109,7.7328
2554.7,-2.0477,10.351
2566.4,-0.0631,11.413
2578.1,-0.083327,9.7205
2589.8,1.0444,6.9222
2601.6,1.3357,10.179
2613.3,0.087365,9.8762
2625,-3.1692,8.7811
2636.7,-0.42855,10.307
2648.4,0.22353,8.8979
2660.2,0.42073,9.9686
2671.9,1.3846,5.914
2683.6,-0.52265,5.6497
2695.3,0.59999,5.2313
2707,1.5585,4.8789
2718.8,0.25622,4.6438
2730.5,0.99909,9.2363
2742.2,-1.7815,9.2219
2753.9,0.46213,8.0254
2765.6,-0.5805,8.3881
2777.3,-2.9207,7.83
2789.1,-2.9807,9.8342
2800.8,-1.9066,7.9056
2812.5,-0.18136,5.9274
2824.2,-0.40181,6.4487
2835.9,0.33222,9.4104
2847.7,-0.8445,8.0842
2859.4,-5.0599,8.5272
2871.1,-1.3087,6.8044
2882.8,-2.0018,6.6401
2894.5,0.30021,7.3648
2906.3,1.813,5.4962
2918,0.20192,7.3416
2929.7,0.40878,8.5202
2941.4,1.4618,9.1648
2953.1,0.96603,7.7797
2964.8,-2.2571,7.1229
2976.6,-1.2333,8.0522
2988.3,1.1048,10.532
3000,-1.3219,11.094
3011.7,1.4381,9.999
3023.4,3.0085,6.6046
3035.2,-1.9778,6.3719
3046.9,-5.5977,6.5146
3058.6,-5.6019,4.7051
3070.3,-3.1261,7.9869
3082,-0.31385,8.5122
3093.8,1.4588,8.2586
3105.5,1.0924,8.0344
3117.2,-1.8867,8.2277
3128.9,1.1234,7.7395
3140.6,0.38358,10.096
3152.3,-2.1158,10.441
3164.1,-1.9399,8.3194
3175.8,-1.8307,6.0706
3187.5,0.64616,6.7699
3199.2,-1.417,4.4814
3210.9,0.65713,7.3405
3222.7,0.36217,8.9429
3234.4,0.11661,4.734
3246.1,-0.75285,6.7972
3257.8,-0.30783,10.899
3269.5,-1.4642,9.8399
3281.3,-1.8943,7.0865
3293,0.2428,8.271
3304.7,-0.097874,9.5473
3316.4,0.14176,9.1894
3328.1,-1.0012,8.7962
3339.8,-0.79468,9.3603
3351.6,-0.47447,6.9338
3363.3,0.5493,7.9245
3375,2.3745,8.7536
3386.7,-1.201,10.778
3398.4,-1.4412,9.9061
3410.2,-1.0634,7.5864
3421.9,-2.5669,6.8038
3433.6,-5.9725,4.6118
3445.3,-1.8082,7.4458
3457,0.28879,7.3502
3468.8,-1.9512,5.5664
3480.5,1.1803,7.6328
3492.2,3.2902,8.76
3503.9,1.8982,6.4174
3515.6,-1.0926,7.2147
3527.3,-0.9518,7.8139
3539.1,0.3842,5.7821
3550.8,1.2893,4.9605
3562.5,-1.2838,4.6588
3574.2,-2.7018,5.4497
3585.9,0.17233,7.8113
3597.7,1.7124,8.5647
3609.4,-1.0232,8.1131
3621.1,-3.4878,8.0273
3632.8,-0.86833,8.336
3644.5,-1.0134,8.2462
3656.3,-0.19179,6.4756
3668,-1.8413,5.8336
3679.7,-1.9668,4.6832
3691.4,-1.4686,4.2662
3703.1,0.13151,7.6159
3714.8,0.19612,8.7087
3726.6,-1.2307,7.1986
3738.3,-1.4309,6.6061
3750,-1.84,6.5008
3761.7,-2.0034,6.6813
3773.4,-2.3205,5.9725
3785.2,-2.6817,5.2964
3796.9,-3.7371,4.1235
3808.6,-1.7175,4.8301
3820.3,-4.1965,6.2911
3832,-2.1877,4.5723
3843.8,-3.2176,6.397
3855.5,-2.3227,8.0522
3867.2,-4.5635,10.462
3878.9,-0.52641,8.6475
3890.6,-0.3092,11.47
3902.3,-0.79711,9.97
3914.1,-1.5086,4.5999
3925.8,-2.2179,3.2922
3937.5,-1.0407,4.6988
3949.2,-5.6977,3.417
3960.9,-3.144,2.5011
3972.7,-7.1689,2.2635
3984.4,-4.9446,3.95
3996.1,-2.3874,5.9041
4007.8,-3.2671,6.9794
4019.5,-1.8267,6.4236
4031.3,-1.2516,6.2102
4043,0.24979,4.4449
4054.7,-0.10979,5.8677
4066.4,-3.0642,7.0806
4078.1,-3.1936,9.2559
4089.8,-2.0323,8.7311
4101.6,-1.0553,5.7027
4113.3,-1.2406,7.1155
4125,-3.7953,3.8973
4136.7,-4.8478,5.5174
4148.4,-5.8221,6.8992
4160.2,-0.28616,4.0412
4171.9,0.033735,3.8912
4183.6,-3.9598,6.97
4195.3,-5.7209,6.6302
4207,-3.1246,4.6911
4218.8,-1.6351,7.2061
4230.5,-1.1444,5.6107
4242.2,-0.71399,3.1496
4253.9,-2.8057,3.7487
4265.6,-3.3568,3.3484
4277.3,-2.4727,4.0977
4289.1,-4.6058,4.0373
4300.8,-2.5594,6.0532
4312.5,-1.4119,4.1257
4324.2,-1.4453,5.8237
4335.9,-0.75206,5.1737
4347.7,-0.2467,3.7698
4359.4,-2.217,2.5893
4371.1,-5.3097,3.3836
4382.8,-6.6301,3.8193
4394.5,-6.7358,6.3448
4406.3,-4.8736,5.3875
4418,-0.7605,4.0195
4429.7,0.21331,6.055
4441.4,-1.3431,4.6985
4453.1,-3.8669,4.1629
4464.8,-3.6766,3.5448
4476.6,-1.0353,8.9381
4488.3,-1.5549,6.943
4500,-3.1606,6.3152
4511.7,-2.6279,6.0279
4523.4,-3.6671,4.7891
4535.2,-2.0727,7.1226
4546.9,-3.8381,7.1773
4558.6,-6.5683,6.1836
4570.3,-6.4681,4.7558
4582,-1.8876,2.3837
4593.8,-1.6721,-1.5115
4605.5,-0.44561,2.7548
4617.2,-3.324,4.9343
4628.9,-3.1393,8.0484
4640.6,-2.7511,7.162
4652.3,-3.594,3.1013
4664.1,-3.6479,3.7441
4675.8,-3.1534,6.383
4687.5,-3.0447,4.5898
4699.2,-3.5955,4.1411
4710.9,-2.1401,5.8225
4722.7,-3.3344,6.4014
4734.4,-3.5673,4.953
4746.1,-4.491,5.6532
4757.8,-4.152,6.3614
4769.5,-2.7853,5.4102
4781.3,-4.6206,7.0084
4793,-5.8754,3.2225
4804.7,-4.1552,1.0391
4816.4,-3.0106,2.9117
4828.1,-4.156,3.001
4839.8,-5.6611,2.2079
4851.6,-3.4854,4.0137
4863.3,-1.8291,3.8327
4875,-1.4638,2.804
4886.7,-1.4553,2.577
4898.4,-1.1871,6.6871
4910.2,-0.49907,6.8153
4921.9,-1.2833,6.3534
4933.6,-2.6527,6.0969
4945.3,-2.6158,5.5503
4957,-0.97626,5.5458
4968.8,-0.98289,4.0171
4980.5,-3.7671,1.4326
4992.2,-1.9404,-0.017267
5003.9,-3.8551,1.3991
5015.6,-3.6875,1.4839
5027.3,-4.826,5.8489
5039.1,-3.3548,5.9826
5050.8,-2.6338,3.0743
5062.5,-3.4633,4.1902
5074.2,-3.0486,6.0187
5085.9,-2.914,4.493
5097.7,-4.8961,3.8475
5109.4,-5.4183,4.1122
5121.1,-6.5943,4.3389
5132.8,-4.4729,4.7904
5144.5,-1.8239,2.4041
5156.3,-1.6902,4.3179
5168,-2.6385,6.6779
5179.7,-5.8045,5.8242
5191.4,-1.8746,4.5563
5203.1,-2.3355,3.1117
5214.8,-2.1498,4.0057
5226.6,-3.1829,1.4628
5238.3,-3.138,5.3749
5250,-2.7521,3.8435
5261.7,-2.7483,0.066074
5273.4,-3.9184,2.8893
5285.2,-5.8548,3.8002
5296.9,-5.515,4.8893
5308.6,-7.4031,4.6527
5320.3,-8.8861,1.7986
5332,-5.581,2.1399
5343.8,-4.9118,6.0866
5355.5,-5.6427,4.2964
5367.2,-3.8585,1.3161
5378.9,-3.2413,2.0459
5390.6,-6.0979,2.8083
5402.3,-4.3592,5.8599
5414.1,-6.3245,5.8255
5425.8,-4.2399,5.5045
5437.5,-5.059,6.3335
5449.2,-4.5903,5.2615
5460.9,-2.3118,3.7113
5472.7,-3.3441,5.2317
5484.4,-4.001,5.0581
5496.1,-3.7101,1.8371
5507.8,-6.8484,2.2471
5519.5,-5.7764,4.9917
5531.3,-3.9699,4.4818
5543,-2.4061,3.3741
5554.7,-3.4922,3.2012
5566.4,-3.1722,2.7035
5578.1,-5.7135,1.4579
5589.8,-4.9349,3.1767
5601.6,-5.4273,2.1675
5613.3,-7.351,2.9843
5625,-8.5282,4.9881
5636.7,-8.7109,3.4921
5648.4,-8.7128,2.0397
5660.2,-6.3957,1.5537
5671.9,-7.0503,1.4597
5683.6,-8.0903,2.1188
5695.3,-6.1453,1.1943
5707,-2.222,2.3776
5718.8,-0.97086,4.2477
5730.5,-1.9406,3.864
5742.2,-3.1212,1.4046
5753.9,-3.1768,3.4796
5765.6,-1.9516,4.2922
5777.3,-2.4374,4.5741
5789.1,-6.5984,2.5393
5800.8,-6.736,2.7947
5812.5,-5.7906,2.2195
5824.2,-5.6126,0.46646
5835.9,-3.6203,1.8556
5847.7,-4.5121,5.2527
5859.4,-5.1656,6.0055
5871.1,-9.0554,5.0912
5882.8,-6.2914,2.9026
5894.5,-3.8043,0.91327
5906.3,-4.8313,1.8964
5918,-5.7934,2.4033
5929.7,-6.1082,2.0009
5941.4,-2.786,4.6656
5953.1,-0.22533,6.1087
5964.8,-2.2762,3.9326
5976.6,-5.8198,1.1187
5988.3,-7.6788,1.5012
6000,-4.1945,0.85352
6011.7,-5.0255,4.3299
6023.4,-4.7415,4.8112
6035.2,-4.1009,3.0726
6046.9,-4.6956,1.3038
6058.6,-4.4484,1.0081
6070.3,-5.017,1.3824
6082,-5.2873,1.0088
6093.8,-3.9646,-1.1244
6105.5,-4.3018,1.5067
6117.2,-8.6376,3.5802
6128.9,-6.6568,3.5772
6140.6,-5.7594,-2.301
6152.3,-4.2514,1.7263
6164.1,-5.7304,1.741
6175.8,-5.6765,0.9562
6187.5,-6.2381,2.8655
6199.2,-8.3429,2.936
6210.9,-8.2676,2.5811
6222.7,-5.8968,1.3914
6234.4,-5.4078,4.2625
6246.1,-5.4788,6.0832
6257.8,-7.7009,2.8386
6269.5,-6.7773,1.9627
6281.3,-8.414,1.257
6293,-9.2379,-1.1772
6304.7,-9.116,3.503
6316.4,-5.8222,4.8895
6328.1,-6.6316,2.0078
6339.8,-7.2004,1.1766
6351.6,-8.2943,3.8255
6363.3,-5.6509,2.7175
6375,-5.8049,0.2159
6386.7,-6.6676,0.52453
6398.4,-7.964,2.5013
6410.2,-8.5756,2.2316
6421.9,-5.3526,4.1224
6433.6,-3.2817,1.6453
6445.3,-2.3476,1.6639
6457,-3.8653,1.0315
6468.8,-5.071,2.0841
6480.5,-5.3249,1.1971
6492.2,-6.9462,1.2337
6503.9,-6.5477,0.41778
6515.6,-7.0612,-0.65245
6527.3,-9.5601,0.81656
6539.1,-7.5725,-0.72429
6550.8,-8.861,-1.1485
6562.5,-7.3537,0.7232
6574.2,-8.2466,0.7563
6585.9,-7.77,0.38219
6597.7,-7.1835,1.7902
6609.4,-6.3516,2.2051
6621.1,-3.9004,1.9443
6632.8,-4.8315,0.42763
6644.5,-7.4065,0.87095
6656.3,-5.7759,0.021123
6668,-6.5789,-2.5495
6679.7,-6.8116,-1.3331
6691.4,-9.8571,1.3922
6703.1,-7.8321,-0.32037
6714.8,-6.4384,2.0144
6726.6,-7.8496,2.3956
6738.3,-7.1082,1.837
6750,-6.9261,1.9015
6761.7,-7.6056,3.1081
6773.4,-9.2722,0.65486
6785.2,-9.4969,1.3399
6796.9,-8.2847,1.6132
6808.6,-5.1496,0.73649
6820.3,-5.4918,2.0215
6832,-9.8099,1.0905
6843.8,-8.7726,0.07411
6855.5,-6.9488,3.6108
6867.2,-5.9018,3.214
6878.9,-6.233,2.1233
6890.6,-4.8475,0.8956
6902.3,-5.3181,4.1875
6914.1,-3.6396,5.0864
6925.8,-5.3718,2.6915
6937.5,-7.255,1.7173
6949.2,-7.4876,-0.66572
6960.9,-8.3407,-2.1675
6972.7,-7.3316,-1.5285
6984.4,-6.5734,-0.52641
6996.1,-5.6024,-0.61314
7007.8,-4.8725,0.61186
7019.5,-3.73,2.5525
7031.3,-6.3653,3.2899
7043,-6.3986,0.83639
7054.7,-5.7131,-2.395
7066.4,-6.9786,-1.3134
7078.1,-7.645,1.0392
7089.8,-8.486,2.875
7101.6,-5.9907,1.2005
7113.3,-5.808,-1.0931
7125,-6.3484,0.57994
7136.7,-7.9988,0.749
7148.4,-7.4426,-1.252
7160.2,-6.9536,-0.46486
7171.9,-6.2639,-1.5891
7183.6,-7.2859,-0.30194
7195.3,-10.66,3.1266
7207,-8.1223,2.43
7218.8,-5.434,-0.57371
7230.5,-5.2277,-1.1496
7242.2,-7.0084,0.16969
7253.9,-8.1797,-0.57907
7265.6,-6.6295,0.18085
7277.3,-4.4376,0.3424
7289.1,-4.4412,0.89134
7300.8,-5.1698,0.58092
7312.5,-6.9847,-1.5521
7324.2,-7.3041,3.0283
7335.9,-3.861,2.5501
7347.7,-4.678,-0.70482
7359.4,-7.7177,-1.3162
7371.1,-7.2617,-0.1241
7382.8,-8.3097,0.99396
7394.5,-7.6933,4.9133
7406.3,-7.9369,5.3284
7418,-7.9324,1.273
7429.7,-8.5369,1.915
7441.4,-7.1089,2.9298
7453.1,-4.3273,4.0005
7464.8,-4.226,2.8101
7476.6,-2.1362,1.9157
7488.3,-2.6523,3.8106
7500,2.6323,4.3586
7511.7,18.208,2.4913
7523.4,30.098,4.5753
7535.2,29.134,6.4523
7546.9,14.155,4.6039
7558.6,-1.6791,0.60665
7570.3,-0.86773,-0.54618
7582,-4.7244,0.17941
7593.8,-7.6695,-0.092235
7605.5,-7.7688,0.70359
7617.2,-7.8659,1.1945
7628.9,-5.9304,-0.13719
7640.6,-5.6054,-0.86365
7652.3,-5.0849,-2.6408
7664.1,-7.1374,0.90086
7675.8,-8.4723,1.3402
7687.5,-8.557,1.9464
7699.2,-9.1321,0.036213
7710.9,-8.1409,-0.39887
7722.7,-6.9114,0.40289
7734.4,-8.8718,1.5754
7746.1,-10.191,1.9869
7757.8,-9.7248,2.9046
7769.5,-8.1543,0.70523
7781.3,-6.7507,-0.22996
7793,-7.8172,0.37358
7804.7,-8.4383,-1.447
7816.4,-7.3601,-0.22092
7828.1,-9.1965,0.14266
7839.8,-9.4898,1.4997
7851.6,-9.3911,2.0358
7863.3,-10.597,-4.0754
7875,-11.042,-0.66928
7886.7,-7.5686,-1.1389
7898.4,-5.9808,0.55327
7910.2,-6.6389,1.2358
7921.9,-9.2966,2.3922
7933.6,-10.851,3.0291
7945.3,-8.9459,1.8298
7957,-7.7638,-1.5475
7968.8,-7.1676,0.54863
7980.5,-7.7685,1.2557
7992.2,-9.0532,2.0007
8003.9,-12.182,0.70657
8015.6,-10.577,0.80674
8027.3,-9.697,0.039624
8039.1,-9.3658,-2.8704
8050.8,-8.6793,-2.7592
8062.5,-6.6113,1.8245
8074.2,-9.3206,2.7107
8085.9,-11.188,-1.994
8097.7,-10.226,-3.8157
8109.4,-7.7602,-2.4976
8121.1,-6.4172,0.40939
8132.8,-6.296,4.5517
8144.5,-6.3569,0.76788
8156.3,-9.02,3.5554
8168,-12.331,-1.1766
8179.7,-10.235,-3.7974
8191.4,-8.9103,-3.3452
8203.1,-8.1918,2.7339
8214.8,-8.3609,1.6437
8226.6,-9.3034,-0.29587
8238.3,-9.4056,-3.1818
8250,-11.071,-0.26348
8261.7,-9.7581,-0.26371
8273.4,-8.8605,-1.3176
8285.2,-7.625,-2.6767
8296.9,-8.4333,-1.5706
8308.6,-8.9197,2.934
8320.3,-10.839,0.70038
8332,-10.914,0.72614
8343.8,-8.4335,-1.0894
8355.5,-11.587,-0.58538
8367.2,-8.8868,-0.11957
8378.9,-9.7695,-0.14271
8390.6,-9.6741,0.99916
8402.3,-10.284,-0.46077
8414.1,-10.507,-0.86167
8425.8,-7.9325,-0.63446
8437.5,-5.4243,0.579
8449.2,-6.1147,0.50063
8460.9,-7.4677,-1.4582
8472.7,-8.5935,1.1717
8484.4,-10.006,0.55254
8496.1,-8.8703,1.5334
8507.8,-9.9742,-0.67059
8519.5,-9.4421,-5.1877
8531.3,-7.9193,-3.1857
8543,-8.1428,-1.7091
8554.7,-8.0213,0.52216
8566.4,-9.5994,-0.79221
8578.1,-11.634,-1.8813
8589.8,-9.2169,-2.9429
8601.6,-11.85,-2.2253
8613.3,-9.8722,0.4729
8625,-9.1747,1.7177
8636.7,-9.2885,-2.3647
8648.4,-9.7291,-0.92682
8660.2,-12.368,1.3306
8671.9,-11.946,2.076
8683.6,-8.7452,-0.55267
8695.3,-8.2145,-2.3474
8707,-7.9148,-2.4399
8718.8,-8.1292,-3.6687
8730.5,-13.005,-4.3437
8742.2,-9.4957,-3.1875
8753.9,-8.8846,-2.2856
8765.6,-11.449,2.2784
8777.3,-9.9934,2.1309
8789.1,-10.183,0.014749
8800.8,-9.7831,-1.3042
8812.5,-8.9691,-3.7334
8824.2,-10.753,-1.003
8835.9,-8.2547,-0.2787
8847.7,-5.6378,-2.9869
8859.4,-7.4288,-0.71511
8871.1,-8.9912,-1.4972
8882.8,-9.7376,-2.8399
8894.5,-8.6835,-2.6526
8906.3,-8.3966,0.015802
8918,-9.6128,-1.3643
8929.7,-8.9527,-1.1715
8941.4,-7.3036,0.29651
8953.1,-6.9083,-2.2581
8964.8,-6.981,-2.42
8976.6,-12.002,-2.5191
8988.3,-7.4557,-2.6411
9000,-7.5852,-1.634
9011.7,-11.126,0.048659
9023.4,-12.532,0.59465
9035.2,-10.651,0.25336
9046.9,-11.711,-2.5525
9058.6,-12.087,-6.3904
9070.3,-7.6385,-0.97065
9082,-5.4486,0.60537
9093.8,-7.0063,-1.5596
9105.5,-10.652,-2.5671
9117.2,-9.3705,-0.75619
9128.9,-8.3328,-1.9465
9140.6,-7.3062,-1.4356
9152.3,-9.9649,-3.2974
9164.1,-10.75,-2.6198
9175.8,-11.108,-2.2082
9187.5,-10.432,-2.686
9199.2,-10.609,-2.3901
9210.9,-10.375,-2.9368
9222.7,-10.343,-3.3797
9234.4,-7.4779,-2.3437
9246.1,-8.1829,0.0040106
9257.8,-13.06,-0.8054
9269.5,-13.6,-2.7138
9281.3,-12.155,0.025027
9293,-9.0146,-3.1927
9304.7,-10.127,-2.647
9316.4,-11.005,-0.2558
9328.1,-12.267,-2.0956
9339.8,-12.455,0.49306
9351.6,-10.7,-1.8976
9363.3,-10.792,-1.0914
9375,-12.969,1.1599
9386.7,-11.203,-1.3206
9398.4,-11.175,-0.98397
9410.2,-12.479,-2.0326
9421.9,-10.27,-1.4052
9433.6,-9.3835,-4.1213
9445.3,-11.724,-3.8841
9457,-11.27,-5.3417
9468.8,-12.184,-5.1799
9480.5,-12.577,-4.2118
9492.2,-11.641,-1.4285
9503.9,-10.855,-0.67477
9515.6,-10.49,-3.03
9527.3,-13.185,-1.8465
9539.1,-14.262,2.7966
9550.8,-11.127,-0.94904
9562.5,-10.371,-3.4495
9574.2,-9.0892,-2.4307
9585.9,-11.416,-2.9866
9597.7,-10.06,-5.0343
9609.4,-12.352,-5.3397
9621.1,-12.345,-2.3668
9632.8,-13.263,-5.2327
9644.5,-11.019,-2.7397
9656.3,-12.753,-1.3667
9668,-9.0004,0.28839
9679.7,-9.7558,-2.0276
9691.4,-13.87,-2.1783
9703.1,-13.582,-1.9408
9714.8,-9.6787,-0.59148
9726.6,-8.9497,-3.7597
9738.3,-9.7231,-3.4399
9750,-10.139,-3.0506
9761.7,-11.919,-3.4263
9773.4,-11.964,-1.7479
9785.2,-9.1276,-2.8435
9796.9,-9.0238,-2.7383
9808.6,-8.7659,-1.1963
9820.3,-9.8916,-2.3094
9832,-9.6284,-1.6629
9843.8,-10.311,0.36525
9855.5,-13.006,-0.83787
9867.2,-10.731,-4.0795
9878.9,-8.5562,-3.181
9890.6,-8.0099,-5.08
9902.3,-7.8439,-9.1346
9914.1,-9.2618,-4.2179
9925.8,-9.3475,-5.8253
9937.5,-11.635,-2.8308
9949.2,-9.4734,0.55807
9960.9,-9.4665,-1.282
9972.7,-14.6,-5.1011
9984.4,-12.228,-9.6988
9996.1,-12.972,-3.9217
10008,-12.203,-3.6072
10020,-12.035,-5.4999
10031,-12.066,-3.7964
10043,-8.5837,-3.9695
10055,-8.9125,-7.8084
10066,-9.7154,-0.41575
10078,-11.75,-0.66615
10090,-12.736,-4.9264
10102,-14.241,-4.0001
10113,-10.804,-2.0528
10125,-10.526,-1.5001
10137,-11.646,-1.5613
10148,-13.93,-2.4742
10160,-9.875,-6.5917
10172,-8.8508,-2.4318
10184,-10.426,-2.08
10195,-10.137,-4.0473
10207,-6.9736,-0.76158
10219,-9.118,-5.3346
10230,-12.308,-3.6827
10242,-12.065,-3.8421
10254,-13.192,1.0906
10266,-12.389,1.0012
10277,-12.485,-5.8646
10289,-13.567,-4.8537
10301,-16.452,-4.4768
10313,-12.737,-4.3206
10324,-10.852,-3.8575
10336,-12.83,-1.319
10348,-11.952,-4.0514
10359,-10.146,-5.0779
10371,-9.9467,-4.7778
10383,-9.6947,-2.392
10395,-12.069,-1.1398
10406,-11.949,-3.6577
10418,-9.1884,-1.3085
10430,-11.229,-1.7196
10441,-13.222,-1.7257
10453,-11.784,-4.937
10465,-12.69,-2.9411
10477,-14.352,-0.46571
10488,-11.455,-3.676
10500,-13.195,-1.7727
10512,-13.175,-2.0787
10523,-13.146,-5.7316
10535,-11.662,-2.9335
10547,-11.929,-6.1519
10559,-8.4069,-7.3725
10570,-8.4647,-3.8841
10582,-10.763,-1.5417
10594,-12.029,-2.8303
10605,-10.269,-1.5226
10617,-13.3,-1.3209
10629,-12.37,-2.7213
10641,-11.091,-2.1266
10652,-12.289,-1.6769
10664,-12.758,-0.84074
10676,-13.199,-0.18607
10688,-16.191,-1.7084
10699,-13.704,-0.35665
10711,-10.653,-2.6026
10723,-8.7693,-4.3446
10734,-8.4404,-6.1006
10746,-10.527,-6.1265
10758,-12.74,-6.0255
10770,-14.789,-4.9168
10781,-13.762,-3.0761
10793,-11.673,-0.78651
10805,-11.503,-1.6244
10816,-13.358,-2.8178
10828,-10.056,-4.3619
10840,-14.252,-4.5993
10852,-15.205,-4.6659
10863,-16.097,-3.4846
10875,-15.483,-4.4929
10887,-16.065,-4.7089
10898,-14.009,-3.9185
10910,-12.616,-5.4068
10922,-14.828,-4.5511
10934,-13.415,-1.4543
10945,-12.136,-2.93
10957,-13.038,-6.6795
10969,-12.83,-3.4343
10980,-11.656,-3.7565
10992,-12.207,-3.3326
11004,-13.273,-3.657
11016,-12.477,-2.6305
11027,-10.428,-0.26307
11039,-9.8184,-5.007
11051,-9.411,-4.575
11063,-9.3443,-2.3253
11074,-10.439,-3.6234
11086,-12.568,-1.6706
11098,-14.8,-3.9645
11109,-10.56,-5.8472
11121,-10.236,-4.5684
11133,-11.838,-3.6905
11145,-11.796,-3.1946
11156,-9.7639,-2.832
11168,-9.7332,-3.2713
11180,-12.226,-8.3982
11191,-15.064,-2.8862
11203,-12.251,-4.676
11215,-10.491,-5.5952
11227,-9.928,-1.618
11238,-9.6975,-4.4098
11250,-11.536,-9.0723
11262,-12.722,-6.636
11273,-11.226,-2.7527
11285,-11.817,-0.12234
11297,-13.508,-0.41586
11309,-12.956,-1.1048
11320,-14.131,-4.4364
11332,-11.159,-6.2008
11344,-11.227,-4.2293
11355,-13.222,-4.8038
11367,-10.778,-6.8441
11379,-8.301,-8.8178
11391,-11.971,-3.9083
11402,-12.982,-2.3196
11414,-12.162,-3.9083
11426,-10.378,-3.5268
11438,-11.382,-2.2372
11449,-13.75,-3.9452
11461,-13.634,-3.5869
11473,-12.347,-1.6241
11484,-14.558,-2.6935
11496,-15.981,-1.7798
11508,-16.573,-1.9475
11520,-13.155,-6.2927
11531,-11.815,-5.2786
11543,-13.671,-3.7917
11555,-13.425,-4.2291
11566,-16.521,-5.0946
11578,-12.549,-3.1192
11590,-11.634,-5.0541
11602,-11.977,-6.7254
11613,-12.51,-6.2904
11625,-8.3749,-6.4663
11637,-8.2182,-3.6553
11648,-10.559,-0.4066
11660,-13.108,-0.55474
11672,-11.729,-4.8694
11684,-12.285,-6.5645
11695,-14.651,-7.4139
11707,-12.993,-8.7774
11719,-9.4654,-3.2448
11730,-13.128,-3.4331
11742,-14.963,-4.9803
11754,-13.083,-4.5618
11766,-12.313,-5.1262
11777,-12.395,-3.5331
11789,-14.107,-3.587
11801,-14.723,-7.762
11813,-13.262,-4.7974
11824,-10.899,-6.9593
11836,-13.078,-8.7812
11848,-14.256,-8.5058
11859,-15.652,-5.6778
11871,-12.708,-3.6681
11883,-11.227,-5.0672
11895,-12.137,-3.5565
11906,-11.649,-2.861
11918,-15.156,-3.7888
11930,-15.968,-7.4109
11941,-13.115,-7.4361
11953,-10.319,-4.3444
11965,-10.878,-4.9745
11977,-12.302,-7.0186
11988,-15.65,-6.6175
12000,-15.998,-4.5002
12012,-10.404,-5.9976
12023,-9.2946,-2.5157
12035,-11.018,-3.6302
12047,-12.927,-4.7325
12059,-14.367,-6.9787
12070,-12.06,-4.4246
12082,-9.1759,-5.9865
12094,-9.8086,-4.669
12105,-13.38,-5.0136
12117,-16.778,-5.5806
12129,-15.982,-5.3529
12141,-13.864,-4.3312
12152,-13.482,-3.3165
12164,-14.808,-3.5826
12176,-13.603,-2.9255
12188,-14.225,-5.3185
12199,-14.817,-7.112
12211,-16.215,-4.6089
12223,-15.221,-3.609
12234,-12.222,-5.575
12246,-10.599,-6.4828
12258,-10.815,-6.5454
12270,-13.499,-6.2807
12281,-13.87,-7.679
12293,-13.109,-6.7535
12305,-13.018,-8.6574
12316,-13.498,-6.4724
12328,-12.801,-3.6102
12340,-12.725,-7.2839
12352,-16.362,-8.1265
12363,-14.18,-7.738
12375,-15.57,-10.125
12387,-15.13,-8.8117
12398,-12.786,-6.9714
12410,-15.52,-5.6142
12422,-11.956,-4.2311
12434,-9.6962,-3.3034
12445,-10.909,-5.0521
12457,-15.466,-6.4204
12469,-15.551,-6.6561
12480,-15.391,-4.7086
12492,-13.691,-5.9295
12504,-12.859,-4.9586
12516,-14.37,-4.6388
12527,-14.566,-8.4743
12539,-14.152,-4.9994
12551,-11.932,-7.1913
12563,-12.92,-9.32
12574,-12.184,-9.8676
12586,-13.69,-9.4588
12598,-11,-6.2879
12609,-10.89,-4.1583
12621,-10.991,-5.1746
12633,-14.037,-6.8817
12645,-12.982,-7.4963
12656,-13.485,-10.433
12668,-12.87,-10.629
12680,-11.796,-7.2611
12691,-13.572,-5.492
12703,-13.656,-4.1848
12715,-14.243,-6.4829
12727,-9.8167,-5.1592
12738,-9.7829,-5.1317
12750,-13.435,-5.4812
12762,-12.708,-7.0868
12773,-14.377,-6.6826
12785,-14.734,-8.974
12797,-14.683,-8.412
12809,-14.622,-8.0703
12820,-12.663,-7.8895
12832,-11.498,-7.7155
12844,-13.29,-7.2935
12855,-16.254,-6.0849
12867,-20.346,-5.187
12879,-15.558,-5.0918
12891,-13.706,-9.1803
12902,-12.861,-6.719
12914,-13.726,-3.6223
12926,-17.664,-5.1128
12938,-12.837,-8.5084
12949,-11.676,-8.2439
12961,-13.175,-5.5425
12973,-14.477,-4.5163
12984,-15.187,-7.2312
12996,-13.895,-8.5604
13008,-13.391,-8.844
13020,-12.831,-6.9772
13031,-13.369,-9.4687
13043,-12.897,-8.2538
13055,-11.49,-6.7086
13066,-12.841,-5.9608
13078,-14.584,-4.6627
13090,-14.041,-3.7928
13102,-12.09,-4.6469
13113,-14.356,-6.8524
13125,-17.829,-7.6885
13137,-11.865,-8.7681
13148,-10.101,-9.8372
13160,-14.023,-7.9462
13172,-13.701,-6.2472
13184,-11.639,-6.7783
13195,-10.564,-8.6791
13207,-14.59,-9.1178
13219,-15.653,-6.4182
13230,-15.524,-6.3419
13242,-13.091,-5.4861
13254,-13.641,-4.0916
13266,-13.719,-4.3856
13277,-13.024,-6.3153
13289,-14.894,-9.2109
13301,-14.541,-8.4713
13313,-13.717,-7.2864
13324,-12.477,-3.9918
13336,-13.394,-5.2519
13348,-16.013,-5.9939
13359,-16.835,-6.7083
13371,-15.36,-8.2863
13383,-16.075,-8.8221
13395,-15.763,-4.8667
13406,-15.52,-4.4159
13418,-12.129,-3.9184
13430,-13.055,-3.9944
13441,-18.133,-6.2892
13453,-14.598,-5.5922
13465,-12.114,-5.6416
13477,-13.148,-5.31
13488,-14.662,-6.2663
13500,-14.959,-7.0311
13512,-14.103,-9.605
13523,-14.969,-9.5898
13535,-14.648,-6.4987
13547,-16.497,-5.723
13559,-13.286,-8.4567
13570,-12.314,-5.2907
13582,-15.233,-4.7076
13594,-12.813,-4.6823
13605,-12.227,-4.9897
13617,-14.61,-5.4677
13629,-17.052,-7.479
13641,-17.51,-9.1018
13652,-16.458,-5.1527
13664,-13.473,-2.9346
13676,-15.38,-4.0475
13688,-16.341,-7.6327
13699,-16.341,-9.3166
13711,-18.288,-7.2938
13723,-15.299,-5.7039
13734,-14.098,-5.3385
13746,-17.309,-6.7118
13758,-14.47,-8.9901
13770,-14.316,-8.1802
13781,-13.869,-3.9672
13793,-14.003,-5.3369
13805,-13.573,-4.1292
13816,-15.245,-4.9506
13828,-13.696,-7.0079
13840,-16.546,-9.4641
13852,-18.331,-5.7265
13863,-15.278,-5.1856
13875,-12.34,-6.7354
13887,-10.483,-6.3526
13898,-11.513,-4.9575
13910,-15.169,-7.2781
13922,-16.488,-8.0956
13934,-13.63,-8.6435
13945,-13.472,-8.7903
13957,-14.619,-7.7206
13969,-15.087,-5.0081
13980,-15.502,-6.7195
13992,-11.511,-9.9614
14004,-13.415,-6.9642
14016,-13.66,-8.1444
14027,-14.269,-8.3223
14039,-15.368,-8.9269
14051,-14.915,-8.1518
14063,-17.284,-9.2363
14074,-15.071,-7.716
14086,-14.38,-5.9848
14098,-13.691,-6.6499
14109,-13.795,-8.1386
14121,-15.804,-7.96
14133,-16.512,-7.8336
14145,-17.369,-8.2996
14156,-17.854,-9.7419
14168,-17.001,-6.6354
14180,-17.589,-5.3251
14191,-19.332,-6.1358
14203,-17.986,-4.782
14215,-14.917,-5.399
14227,-16.468,-8.0139
14238,-16.062,-9.6966
14250,-19.895,-11.898
14262,-16.511,-10.367
14273,-19.723,-8.3363
14285,-17.769,-9.0366
14297,-15.313,-9.343
14309,-16.733,-6.385
14320,-17.099,-6.2838
14332,-15.451,-6.0826
14344,-15.108,-11.593
14355,-17.584,-5.5431
14367,-16.855,-5.3651
14379,-16.79,-6.2305
14391,-17.368,-10.218
14402,-17.946,-10.832
14414,-15.596,-6.9121
14426,-14.939,-7.4734
14438,-16.921,-5.1152
14449,-15.276,-7.0793
14461,-16.398,-5.0551
14473,-16.929,-6.584
14484,-15.672,-9.0936
14496,-17.857,-8.0751
14508,-17.014,-9.9528
14520,-15.688,-12.177
14531,-16.816,-7.2649
14543,-17.088,-5.2714
14555,-15.212,-5.8711
14566,-16.387,-7.7383
14578,-15.645,-7.434
14590,-14.764,-7.6614
14602,-15.843,-6.5868
14613,-15.212,-10.077
14625,-16.698,-10.577
14637,-15.946,-8.02
14648,-16.138,-5.8799
14660,-15.637,-8.4646
14672,-17.466,-6.3293
14684,-16.205,-4.5327
14695,-15.194,-6.868
14707,-15.979,-10.766
14719,-17.582,-9.5925
14730,-20.703,-7.1096
14742,-18.512,-7.897
14754,-18.789,-9.3318
14766,-15.695,-10.144
14777,-16.17,-9.0515
14789,-19.656,-6.6868
14801,-20.185,-6.3878
14813,-14.237,-8.1226
14824,-13.903,-9.6265
14836,-17.516,-9.6264
14848,-14.448,-9.253
14859,-14.975,-9.8061
14871,-18.244,-6.7945
14883,-17.98,-7.9551
14895,-17.868,-8.7175
14906,-16.179,-8.9242
14918,-16.42,-10.781
14930,-15.821,-9.8442
14941,-18.098,-8.7705
14953,-20.766,-5.503
14965,-19.69,-4.7518
14977,-19.12,-7.6388
14988,-19.096,-8.262
15000,-21.751,-6.9185
15012,-17.992,-8.5618
15023,-13.826,-9.9618
15035,-11.734,-8.3889
15047,-14.833,-9.6725
15059,-21.124,-10.038
15070,-17.103,-8.8559
15082,-17.225,-7.9455
15094,-19.18,-6.953
15105,-17.147,-5.7303
15117,-15.843,-8.6534
15129,-14.992,-7.343
15141,-14.852,-7.6649
15152,-16.96,-7.2507
15164,-17.037,-6.3692
15176,-15.282,-7.0504
15188,-16.499,-11.113
15199,-18.923,-9.5426
15211,-16.843,-9.019
15223,-16.315,-9.793
15234,-18.62,-9.8209
15246,-19.1,-11.54
15258,-17.349,-8.651
15270,-20.203,-7.557
15281,-15.87,-9.8826
15293,-15.216,-7.2822
15305,-17.033,-6.6622
15316,-17.347,-5.7459
15328,-15.108,-5.2941
15340,-15.389,-6.2394
15352,-14.554,-8.2498
15363,-14.823,-9.2594
15375,-18.249,-10.396
15387,-18.514,-13.36
15398,-19.553,-13.316
15410,-22.067,-10.62
15422,-20.431,-11.899
15434,-19.106,-10.317
15445,-17.368,-7.9679
15457,-17.294,-9.7065
15469,-17.541,-9.1715
15480,-17.093,-5.7289
15492,-17.152,-6.7411
15504,-21.095,-8.3573
15516,-24.941,-10.596
15527,-22.414,-8.3839
15539,-22.159,-7.4327
15551,-20.233,-7.5252
15563,-17.096,-10.21
15574,-18.432,-9.5566
15586,-20.499,-11.005
15598,-18.817,-12.34
15609,-19.054,-13.72
15621,-17.611,-10.523
15633,-16.948,-9.7001
15645,-17.388,-9.3924
15656,-18.995,-5.2416
15668,-19.928,-7.0951
15680,-19.646,-13.262
15691,-18.034,-11.783
15703,-18.361,-10.758
15715,-17.583,-10.309
15727,-18.649,-8.9319
15738,-21.197,-7.7645
15750,-19.648,-9.7803
15762,-17.543,-10.199
15773,-18.623,-8.8601
15785,-19.287,-8.4377
15797,-17.633,-8.3012
15809,-19.897,-8.7077
15820,-20.139,-8.1344
15832,-21.624,-8.7268
15844,-22.508,-7.6387
15855,-20.052,-6.3507
15867,-19.825,-7.2163
15879,-19.905,-9.9475
15891,-22.96,-12.208
15902,-20.834,-10.727
15914,-19.32,-8.8994
15926,-17.799,-10.703
15938,-18.55,-11.568
15949,-18.934,-8.479
15961,-17.515,-9.1982
15973,-18.491,-7.9085
15984,-19.078,-6.1897
15996,-18.337,-6.9478
16008,-19.964,-11.243
16020,-18.083,-11.887
16031,-15.006,-9.6857
16043,-18.002,-10.322
16055,-19.039,-7.8219
16066,-18.757,-10.633
16078,-18.284,-12.004
16090,-18.582,-10.082
16102,-15.989,-10.786
16113,-17.335,-12.324
16125,-19.263,-8.4998
16137,-17.422,-8.1144
16148,-19.615,-9.5669
16160,-20.035,-9.6092
16172,-20.678,-9.6453
16184,-19.572,-9.8243
16195,-19.552,-5.9642
16207,-20.58,-6.2332
16219,-21.317,-8.4068
16230,-21.872,-8.8511
16242,-21.209,-7.9192
16254,-18.672,-10.153
16266,-22.157,-12.548
16277,-20.573,-11.786
16289,-18.704,-10.081
16301,-18.963,-7.4563
16313,-18.995,-6.8602
16324,-22.036,-7.7053
16336,-22.977,-9.5068
16348,-23.075,-9.4787
16359,-21.695,-10.844
16371,-21.709,-10.657
16383,-20.788,-11.456
16395,-21.04,-13.029
16406,-21.344,-11.798
16418,-20.314,-9.2421
16430,-20.052,-9.5776
16441,-21.45,-9.2275
16453,-23.119,-8.4117
16465,-20.674,-7.9912
16477,-18.054,-8.1137
16488,-18.638,-8.7452
16500,-22.918,-9.91
16512,-19.725,-9.728
16523,-20.635,-10.886
16535,-21.267,-11.553
16547,-18.976,-10.833
16559,-17.611,-10.427
16570,-17.376,-11.41
16582,-20.472,-12.335
16594,-22.457,-7.0858
16605,-20.147,-7.2623
16617,-19.825,-16.215
16629,-21.815,-10.389
16641,-20.297,-10.256
16652,-20.519,-8.6384
16664,-17.465,-7.5217
16676,-15.811,-5.6407
16688,-20.325,-7.629
16699,-20.612,-14.648
16711,-19.536,-14.508
16723,-18.247,-14.251
16734,-19.069,-11.302
16746,-21.922,-10.48
16758,-22.071,-9.9919
16770,-20.691,-13.719
16781,-20.383,-10.156
16793,-22.49,-9.7777
16805,-20.642,-11.042
16816,-23.842,-11.39
16828,-20.049,-13.446
16840,-19.705,-13.898
16852,-19.334,-9.376
16863,-21.841,-8.9191
16875,-24.499,-7.7057
16887,-24.51,-9.6982
16898,-22.832,-12.508
16910,-21.214,-12.61
16922,-19.663,-9.9037
16934,-20.799,-7.7398
16945,-20.819,-7.94
16957,-20.72,-8.9897
16969,-21.17,-11.397
16980,-21.032,-9.9189
16992,-20.757,-9.7956
17004,-24.297,-11.839
17016,-22.192,-10.383
17027,-19.418,-13.709
17039,-20.243,-11.327
17051,-21.815,-9.4399
17063,-23.334,-8.8725
17074,-21.417,-11.398
17086,-22.168,-10.607
17098,-20.185,-10.049
17109,-20.995,-9.8648
17121,-21.489,-9.8866
17133,-24.52,-7.7597
17145,-21.888,-8.3086
17156,-19.079,-8.7524
17168,-22.313,-10.155
17180,-23.153,-11.663
17191,-20.655,-10.474
17203,-21.014,-13.846
17215,-21.947,-13.982
17227,-19.412,-12.881
17238,-17.462,-14.201
17250,-18.832,-14.773
17262,-21.845,-15.998
17273,-19.881,-11.041
17285,-21.876,-9.0081
17297,-22.353,-9.0929
17309,-20.456,-11.339
17320,-21.983,-7.3985
17332,-21.777,-8.7733
17344,-22.193,-10.731
17355,-22.825,-14.04
17367,-23.888,-11.26
17379,-22.026,-8.7201
17391,-21.455,-9.7402
17402,-22.246,-10.023
17414,-24.128,-6.9995
17426,-24.628,-9.8759
17438,-22.317,-9.4723
17449,-22.025,-11.012
17461,-21.519,-10.965
17473,-19.5,-11.122
17484,-19.705,-10.362
17496,-23.093,-12.896
17508,-22.182,-10.133
17520,-22.812,-11.39
17531,-23.099,-9.2245
17543,-25.383,-7.7601
17555,-25.056,-7.9674
17566,-22.543,-9.127
17578,-22.726,-11.622
17590,-22.82,-13.269
17602,-21.907,-13.043
17613,-20.27,-14.092
17625,-20.566,-12.983
17637,-20.928,-13.277
17648,-19.673,-12.801
17660,-20.348,-8.859
17672,-21.217,-8.0993
17684,-21.691,-11.805
17695,-20.697,-12.62
17707,-21.569,-9.4631
17719,-20.492,-8.3559
17730,-19.86,-8.4419
17742,-24.083,-7.7451
17754,-21.829,-10.499
17766,-22.543,-11.661
17777,-19.817,-12.736
17789,-19.731,-10.119
17801,-19.392,-10.307
17813,-20.934,-11.731
17824,-22.505,-12.366
17836,-23.761,-12.989
17848,-21.005,-10.228
17859,-20.707,-12.199
17871,-24.321,-14.004
17883,-22.439,-14.315
17895,-22.043,-12.305
17906,-24.464,-10.959
17918,-23.487,-12.799
17930,-20.702,-11.161
17941,-21.658,-13.409
17953,-21.781,-11.608
17965,-24.784,-12.381
17977,-24.425,-12.53
17988,-22.591,-12.757
18000,-24.77,-14.99
18012,-25.108,-16.12
18023,-27.253,-15.046
18035,-24.137,-12.863
18047,-22.332,-9.4174
18059,-23.775,-10.618
18070,-25.138,-10.549
18082,-23.561,-10.401
18094,-20.641,-13.775
18105,-23.476,-10.391
18117,-23.014,-10.505
18129,-22.234,-12.433
18141,-25.09,-11.76
18152,-22.616,-10.018
18164,-19.037,-15.574
18176,-19.874,-11.876
18188,-22.308,-10.421
18199,-23.862,-10.567
18211,-23.588,-12.154
18223,-23.768,-13.613
18234,-22.708,-11.183
18246,-21.366,-12.96
18258,-22.047,-10.702
18270,-22.112,-9.173
18281,-24.01,-13.687
18293,-20.862,-13.467
18305,-21.415,-11.267
18316,-24.481,-12.318
18328,-25.147,-11.44
18340,-22.938,-11.154
18352,-21.313,-12.533
18363,-22.219,-12.549
18375,-23.035,-14.973
18387,-21.685,-13.83
18398,-21.127,-10.815
18410,-22.612,-11.172
18422,-23.266,-10.682
18434,-21.192,-9.837
18445,-21.101,-12.469
18457,-23.134,-15.191
18469,-22.535,-10.991
18480,-23.47,-8.3297
18492,-24.939,-9.6355
18504,-25.095,-12.656
18516,-23.804,-13.135
18527,-22.134,-9.9031
18539,-23.681,-9.2766
18551,-22.135,-12.091
18563,-22.387,-11.062
18574,-20.612,-8.4011
18586,-21.199,-12.308
18598,-24.9,-12.216
18609,-23.774,-12.701
18621,-20.963,-13.768
18633,-20.178,-13.782
18645,-23.179,-13.666
18656,-26.172,-11.319
18668,-23.722,-11.055
18680,-21.874,-12.229
18691,-23.4,-10.743
18703,-25.411,-11.978
18715,-23.874,-12.67
18727,-23.968,-12.964
18738,-25.228,-9.94
18750,-26.373,-12.12
18762,-25.546,-13.462
18773,-22.468,-12.166
18785,-22.967,-11.326
18797,-25.496,-11.847
18809,-22.638,-11.066
18820,-21.621,-9.1207
18832,-24.635,-10.305
18844,-27.095,-11.46
18855,-26.901,-12.994
18867,-22.851,-12.269
18879,-21.692,-14.061
18891,-24.592,-12.845
18902,-22.592,-11.775
18914,-22.018,-10.342
18926,-24.156,-12.578
18938,-25.576,-16.528
18949,-25.16,-15.941
18961,-26.44,-13.595
18973,-25.654,-11.752
18984,-24.528,-13.611
18996,-26.602,-12.028
19008,-24.37,-11.061
19020,-26.566,-11.365
19031,-24.774,-13.007
19043,-23.101,-11.443
19055,-24.208,-13.098
19066,-24.042,-13.51
19078,-23.401,-10.235
19090,-25.316,-11.037
19102,-29.552,-15.404
19113,-26.162,-12.656
19125,-28.015,-9.2677
19137,-22.994,-10.062
19148,-21.887,-11.198
19160,-23.67,-11.155
19172,-23.941,-13.577
19184,-22.97,-15.124
19195,-23.763,-15.633
19207,-26.043,-12.855
19219,-27.344,-10.753
19230,-24.112,-13.339
19242,-23.364,-11.953
19254,-24.795,-11.928
19266,-24.822,-12.845
19277,-21.614,-14.182
19289,-22.396,-13.158
19301,-21.001,-14.542
19313,-22.534,-12.722
19324,-26.355,-11.697
19336,-25.297,-12.051
19348,-24.979,-13.473
19359,-22.784,-17.565
19371,-24.989,-15.832
19383,-21.359,-10.8
19395,-22.747,-9.9521
19406,-23.082,-11.55
19418,-24.32,-15.065
19430,-25.965,-14.841
19441,-21.23,-14.263
19453,-23.321,-11.189
19465,-25.897,-11.317
19477,-23.945,-12.792
19488,-25.224,-15.042
19500,-22.917,-13.966
19512,-22.406,-11.519
19523,-22.157,-14.013
19535,-22.388,-15.059
19547,-23.228,-11.319
19559,-25.589,-9.8616
19570,-26.245,-13.35
19582,-26.304,-15.247
19594,-25.66,-13.154
19605,-24.515,-13.359
19617,-21.833,-13.841
19629,-20.766,-13.022
19641,-22.306,-12.867
19652,-26.315,-11.81
19664,-24.642,-12.308
19676,-21.95,-15.583
19688,-23.985,-14.137
19699,-25.516,-15.703
19711,-25.216,-14.933
19723,-23.339,-14.484
19734,-22.193,-14.42
19746,-23.992,-16.173
19758,-26.513,-13.449
19770,-29.238,-11.6
19781,-29.579,-12.974
19793,-25.761,-15.405
19805,-25.844,-11.608
19816,-23.267,-14.122
19828,-24.586,-11.921
19840,-23.548,-12.59
19852,-22.461,-14.268
19863,-24.646,-12.447
19875,-23.49,-14.064
19887,-26.598,-13.211
19898,-22.603,-13.831
19910,-24.261,-17.001
19922,-24.542,-15.709
19934,-22.492,-12.123
19945,-21.099,-13.407
19957,-22.439,-14.319
19969,-26.05,-12.147
19980,-25.283,-13.077
19992,-23.076,-15.12
20004,-22.43,-17.19
20016,-23.011,-14.583
20027,-20.916,-12.316
20039,-23,-14.524
20051,-24.087,-14.438
20063,-24.909,-16.515
20074,-25.979,-12.972
20086,-24.189,-10.306
20098,-25.102,-12.188
20109,-26.735,-14.039
20121,-26.78,-14.974
20133,-26.587,-13.948
20145,-27.857,-12.34
20156,-25.024,-11.757
20168,-25.279,-12.514
20180,-27.034,-13.916
20191,-23.625,-17.949
20203,-22.434,-18.132
20215,-26.187,-15.231
20227,-22.264,-13.388
20238,-23.917,-14.713
20250,-25.365,-14.341
20262,-25.194,-13.787
20273,-24.554,-9.9628
20285,-23.864,-13.759
20297,-26.58,-12.839
20309,-25.82,-16.184
20320,-25.656,-16.861
20332,-25.4,-17.831
20344,-25.403,-18.316
20355,-25.702,-21.55
20367,-26.926,-19.149
20379,-27.038,-15.036
20391,-24.972,-16.264
20402,-26.117,-14.885
20414,-23.427,-15.286
20426,-21.279,-14.183
20438,-22.629,-13.539
20449,-22.777,-12.179
20461,-22.856,-12.958
20473,-25.164,-15.058
20484,-29.207,-14.608
20496,-29.105,-12.324
20508,-24.711,-16.536
20520,-24.451,-15.065
20531,-26.808,-12.871
20543,-26.555,-15.267
20555,-24.18,-15.945
20566,-21.662,-14.539
20578,-23.353,-12.558
20590,-24.246,-12.016
20602,-23.499,-13.301
20613,-27.631,-15.22
20625,-23.871,-14.304
20637,-25.259,-12.876
20648,-26.467,-14.861
20660,-27.559,-16.49
20672,-26.941,-15.66
20684,-26.873,-14.078
20695,-25.032,-14.18
20707,-25.42,-16.69
20719,-26.182,-17.206
20730,-27.963,-19.239
20742,-27.071,-15.117
20754,-29.1,-12.467
20766,-26.689,-12.904
20777,-26.916,-14.227
20789,-29.411,-15.295
20801,-26.665,-10.647
20813,-26.983,-11.669
20824,-24.71,-14.262
20836,-26.88,-12.924
20848,-28.357,-14.364
20859,-26.678,-14.151
20871,-25.066,-15.125
20883,-25.76,-15.358
20895,-23.191,-13.7
20906,-25.39,-14.716
20918,-26.064,-14.542
20930,-24.471,-16.06
20941,-25.963,-14.012
20953,-27.541,-11.581
20965,-24.198,-13.386
20977,-23.37,-10.605
20988,-24.47,-13.778
21000,-26.865,-13.955
21012,-26.65,-14.464
21023,-24.029,-14.818
21035,-24.816,-13.687
21047,-25.762,-12.887
21059,-25.262,-12.527
21070,-27.1,-13.964
21082,-26.314,-15.873
21094,-27.656,-16.043
21105,-29.703,-14.936
21117,-28.131,-12.434
21129,-25.799,-11.447
21141,-25.13,-12.141
21152,-26.457,-12.498
21164,-24.917,-12.237
21176,-26.496,-12.248
21188,-27.428,-13.834
21199,-27.454,-16.532
21211,-27.127,-17.609
21223,-28.744,-15.172
21234,-29.601,-15.443
21246,-28.921,-14.393
21258,-27.819,-15.336
21270,-27.588,-16.904
21281,-26.368,-15.34
21293,-26.044,-14.949
21305,-25.766,-15.825
21316,-24.344,-16.693
21328,-23.96,-16.472
21340,-24.615,-16.591
21352,-28.658,-18.992
21363,-27.533,-16.247
21375,-28.257,-14.654
21387,-28.223,-13.33
21398,-29.959,-11.206
21410,-25.746,-12.168
21422,-24.787,-13.163
21434,-25.706,-10.879
21445,-24.114,-12.911
21457,-25.684,-14.345
21469,-26.403,-15.722
21480,-26.198,-18.776
21492,-26.124,-15.591
21504,-27.905,-13.449
21516,-28.318,-12.936
21527,-26.676,-14.191
21539,-28.511,-15.847
21551,-27.656,-12.072
21563,-28.024,-12.582
21574,-25.884,-13.899
21586,-23.951,-13.032
21598,-25.038,-11.664
21609,-28.104,-14.66
21621,-25.831,-15.348
21633,-24.937,-14.162
21645,-27.45,-17.453
21656,-25.785,-16.834
21668,-26.006,-15.037
21680,-29.933,-15.344
21691,-27.38,-14.629
21703,-24.049,-15.056
21715,-23.617,-14.944
21727,-24.037,-15.746
21738,-22.847,-15.845
21750,-24.973,-13.819
21762,-28.159,-15.16
21773,-28.285,-14.858
21785,-26.943,-14.019
21797,-27.392,-15.74
21809,-25.823,-13.674
21820,-30.02,-14.108
21832,-28.535,-15.391
21844,-25.134,-14.88
21855,-23.197,-14.725
21867,-26.781,-14.672
21879,-26.903,-14.294
21891,-24.352,-15.254
21902,-27.886,-14.498
21914,-24.405,-15.3
21926,-25.428,-14.51
21938,-25.946,-16.158
21949,-27.704,-15.078
21961,-28.636,-14.753
21973,-23.798,-15.154
21984,-26.077,-15.868
21996,-26.11,-17.51
22008,-25.669,-16.296
22020,-25.701,-18.433
22031,-24.834,-17.327
22043,-25.068,-16.42
22055,-28.393,-14.247
22066,-26.23,-14.933
22078,-25.413,-14.635
22090,-27.324,-16
22102,-25.34,-16.273
22113,-26.533,-15.391
22125,-25.601,-14.084
22137,-24.58,-15.071
22148,-26.736,-14.184
22160,-26.564,-13.406
22172,-27.908,-16.745
22184,-28.597,-16.36
22195,-30.433,-15.999
22207,-28.65,-16.335
22219,-25.871,-15.341
22230,-28.388,-14.518
22242,-27.595,-18.132
22254,-28.114,-14.309
22266,-28.024,-14.026
22277,-26.372,-15.48
22289,-28.511,-16.922
22301,-30.053,-16.493
22313,-27.065,-14.996
22324,-26.569,-15.42
22336,-26.861,-14.495
22348,-27.974,-17.354
22359,-25.533,-14.768
22371,-24.756,-15.334
22383,-28.638,-16.401
22395,-27.163,-17.211
22406,-25.365,-15.487
22418,-27.423,-13.682
22430,-26.353,-13.903
22441,-23.364,-18.446
22453,-23.561,-14.242
22465,-25.568,-15.292
22477,-25.735,-18.065
22488,-26.088,-15.132
22500,-24.302,-14.487
22512,-26.059,-15.911
22523,-26.391,-15.807
22535,-26.736,-17.947
22547,-30.01,-17.694
22559,-30.985,-15.963
22570,-29.399,-16.944
22582,-29.144,-18.511
22594,-28.165,-19.034
22605,-27.65,-16.23
22617,-29.666,-13.405
22629,-31.674,-15.301
22641,-29.592,-15.724
22652,-28.061,-15.182
22664,-27.289,-19.526
22676,-31.427,-18.153
22688,-27.99,-17.349
22699,-27.094,-18.04
22711,-27.858,-14.589
22723,-28.779,-16.527
22734,-28.535,-14.422
22746,-27.626,-14.453
22758,-30.69,-15.732
22770,-27.997,-17.502
22781,-28.23,-15.078
22793,-28.47,-15.716
22805,-27.805,-17.803
22816,-26.544,-16.06
22828,-28.565,-15.166
22840,-28.609,-14.759
22852,-28.565,-15.892
22863,-24.791,-16.373
22875,-25.895,-13.42
22887,-26.953,-14.352
22898,-26.388,-15.731
22910,-29.182,-13.748
22922,-26.263,-15.707
22934,-24.186,-17.194
22945,-24.552,-18.28
22957,-27.908,-16.935
22969,-27.504,-18.296
22980,-28.65,-18.808
22992,-27.991,-15.972
23004,-27.574,-15.051
23016,-33.133,-13.524
23027,-27.631,-13.07
23039,-27.032,-14.739
23051,-27.341,-13.779
23063,-29.14,-14.248
23074,-30.06,-16.742
23086,-28.76,-14.718
23098,-28.859,-17.86
23109,-31.225,-15.492
23121,-30.809,-15.403
23133,-28.835,-17.663
23145,-29.05,-18.999
23156,-29.491,-15.177
23168,-31.996,-16.243
23180,-28.663,-18.149
23191,-26.546,-18.804
23203,-27.001,-14.851
23215,-30.024,-14.814
23227,-29.422,-17.497
23238,-26.809,-18.838
23250,-26.234,-19.591
23262,-27.73,-19.959
23273,-26.998,-16.312
23285,-27.728,-16.177
23297,-28.67,-19.705
23309,-30.81,-17.451
23320,-28.6,-16.506
23332,-24.555,-17.168
23344,-25.913,-17.546
23355,-27.498,-17.356
23367,-29.437,-17.309
23379,-28.66,-17.016
23391,-30.896,-17.527
23402,-33.449,-18.145
23414,-28.792,-19.639
23426,-29.444,-20.129
23438,-29.427,-18.182
23449,-29.52,-14.076
23461,-25.324,-15.308
23473,-27.778,-17.773
23484,-31.012,-17.37
23496,-26.698,-15.078
23508,-27.085,-15.712
23520,-28.595,-20.052
23531,-27.563,-18.796
23543,-26.942,-17.648
23555,-28.958,-17.682
23566,-30.848,-16.418
23578,-32.551,-13.386
23590,-30.768,-12.761
23602,-27.028,-13.777
23613,-26.975,-15.294
23625,-28.903,-17.261
23637,-28.854,-15.624
23648,-28.796,-16.145
23660,-27.16,-16.375
23672,-26.712,-14.087
23684,-26.882,-17.019
23695,-30.289,-18.466
23707,-30.827,-15.387
23719,-27.199,-15.136
23730,-23.853,-14.603
23742,-27.61,-17.349
23754,-29.178,-17.885
23766,-29.484,-18.077
23777,-28.494,-16.177
23789,-27.035,-13.612
23801,-28.524,-16.284
23813,-29.329,-18.81
23824,-28.802,-17.422
23836,-31.402,-14.275
23848,-28.846,-14.28
23859,-29.114,-15.957
23871,-28.561,-13.357
23883,-28.02,-12.81
23895,-28.891,-17.004
23906,-28.202,-15.06
23918,-27.765,-15.898
23930,-31.145,-13.513
23941,-29.788,-14.894
23953,-31.443,-17.324
23965,-31.655,-16.665
23977,-29.71,-15.815
23988,-29.073,-13.757
