FFT,Power Spectrum
Frequency[Hz],Level-L[dB],Level-R[dB]
11.719,-23.081,-26.315
23.438,-2.6138,-5.7946
35.156,-2.5598,-2.2565
46.875,2.9536,4.406
58.594,4.2522,3.7801
70.313,4.0044,4.6638
82.031,6.2054,7.6853
93.75,8.0802,9.5322
105.47,8.3751,9.8858
117.19,9.0556,13.058
128.91,14.201,15.271
140.63,16.726,16.561
152.34,10.735,12.789
164.06,1.9696,9.1822
175.78,6.7147,11.099
187.5,11.37,13.625
199.22,10.508,13.01
210.94,9.5739,9.815
222.66,8.8283,10.611
234.38,9.0314,11.084
246.09,7.8727,11.902
257.81,6.5776,12.14
269.53,5.3625,12.01
281.25,9.1988,13.405
292.97,9.0943,15.683
304.69,5.3337,16.952
316.41,4.1017,16.722
328.13,8.2002,16.56
339.84,5.3552,16.463
351.56,3.8718,11.693
363.28,6.8965,11.352
375,6.358,13.182
386.72,3.5935,12.06
398.44,4.0689,11.346
410.16,4.8489,12.461
421.88,8.1887,11.061
433.59,6.2242,10.731
445.31,2.7778,10.524
457.03,4.9986,14.881
468.75,4.6469,14.578
480.47,4.4159,13.263
492.19,5.4488,14.493
503.91,6.4406,14.283
515.63,7.5041,12.709
527.34,5.3986,11.862
539.06,3.2568,12.711
550.78,3.5705,12.991
562.5,2.2533,8.793
574.22,2.2054,13.578
585.94,6.024,15.738
597.66,3.796,11.765
609.38,6.0897,13.521
621.09,8.5983,14.618
632.81,8.8089,11.249
644.53,7.0103,9.395
656.25,2.4748,12.665
667.97,5.6026,12.428
679.69,6.0052,11.372
691.41,4.7528,11.352
703.13,5.6431,9.5913
714.84,4.9385,12.292
726.56,6.5026,14.749
738.28,8.9848,15.103
750,11.163,13.043
761.72,5.5943,10.814
773.44,4.4798,13.035
785.16,5.1137,10.572
796.88,4.4477,10.218
808.59,3.9331,11.617
820.31,5.1443,14.374
832.03,6.4205,13.522
843.75,2.3662,13.718
855.47,5.1822,12.217
867.19,3.6911,10.735
878.91,3.2849,11.332
890.63,7.11,11.695
902.34,7.1039,10.728
914.06,10.109,12.092
925.78,7.4878,11.638
937.5,3.5662,13.868
949.22,6.1142,13.042
960.94,6.9039,12.319
972.66,6.9621,11.048
984.38,8.5863,11.6
996.09,8.3731,13.448
1007.8,6.7008,12.558
1019.5,5.8597,13.235
1031.3,4.6439,14.303
1043,5.1122,13.645
1054.7,5.3456,13.645
1066.4,5.8569,16.121
1078.1,6.0424,14.872
1089.8,6.1208,13.186
1101.6,4.4934,13.045
1113.3,1.7051,13.202
1125,3.2042,10.201
1136.7,3.6617,7.6413
1148.4,4.2037,7.6638
1160.2,4.6143,10.209
1171.9,5.1918,12.48
1183.6,4.9921,16.495
1195.3,5.3496,14.337
1207,7.3941,12.662
1218.8,6.4632,11.645
1230.5,1.7729,12.216
1242.2,3.6999,13.808
1253.9,1.3742,14.1
1265.6,1.3256,13.01
1277.3,6.6193,11.615
1289.1,3.6984,11.502
1300.8,8.5575,10.347
1312.5,8.2083,11.256
1324.2,5.1465,13.369
1335.9,4.137,13.033
1347.7,2.9171,12.502
1359.4,3.5166,12.173
1371.1,5.1188,13.123
1382.8,5.9717,14.041
1394.5,7.2015,15.581
1406.3,8.6388,14.602
1418,5.8856,13.855
1429.7,5.1935,11.042
1441.4,4.8001,12.226
1453.1,4.3465,12.275
1464.8,5.0762,10.837
1476.6,5.9238,10.82
1488.3,7.3552,10.978
1500,6.8324,10.699
1511.7,5.1027,11.07
1523.4,4.5479,12.23
1535.2,3.5656,12.789
1546.9,0.86791,10.882
1558.6,1.0627,11.665
1570.3,5.3047,12.104
1582,4.9879,10.272
1593.8,3.9437,12.424
1605.5,7.1074,11.701
1617.2,6.7531,11.16
1628.9,3.3319,10.793
1640.6,4.7138,10.903
1652.3,1.2021,12.34
1664.1,0.48005,11.923
1675.8,4.445,12.724
1687.5,3.8387,12.117
1699.2,2.1943,11.503
1710.9,4.4453,10.339
1722.7,3.9731,8.33
1734.4,1.6452,9.9431
1746.1,1.9168,11.677
1757.8,2.653,14.036
1769.5,3.2899,11.843
1781.3,5.0665,10.311
1793,7.0768,11.907
1804.7,6.2978,11.1
1816.4,4.0642,12.096
1828.1,1.3779,8.2469
1839.8,1.8837,11.299
1851.6,2.8135,12.668
1863.3,2.8464,9.0305
1875,2.5404,7.979
1886.7,3.5172,10.515
1898.4,4.7317,11.51
1910.2,3.523,11.479
1921.9,2.9127,11.849
1933.6,3.6077,9.8458
1945.3,2.1531,9.9159
1957,1.0296,9.2594
1968.8,1.1512,12.569
1980.5,1.3861,11.914
1992.2,2.9154,10.145
2003.9,1.4445,12.205
2015.6,-0.91366,11.095
2027.3,-0.38928,9.009
2039.1,-0.50316,9.6122
2050.8,1.5717,8.6939
2062.5,0.65948,7.7953
2074.2,2.5693,13.098
2085.9,1.0642,12.637
2097.7,0.73366,11.432
2109.4,-1.05,9.1894
2121.1,-0.51289,9.6004
2132.8,2.8157,9.8129
2144.5,1.8363,10.153
2156.3,-2.0363,13.763
2168,-0.71824,11.562
2179.7,-0.45476,9.2222
2191.4,1.8592,8.237
2203.1,-0.33519,8.9945
2214.8,2.9357,7.6435
2226.6,3.2962,7.1036
2238.3,1.4142,5.7071
2250,1.9263,8.4199
2261.7,1.7354,11.143
2273.4,1.9307,11.495
2285.2,0.48054,10.707
2296.9,0.60773,10.723
2308.6,2.463,9.9666
2320.3,4.3109,10.754
2332,3.275,8.0241
2343.8,2.8253,7.3798
2355.5,3.4275,7.4939
2367.2,5.1208,12.819
2378.9,5.2829,16.777
2390.6,3.5738,12.65
2402.3,-0.0098964,10.022
2414.1,-2.9092,12.594
2425.8,-1.6438,13.451
2437.5,0.60437,12.591
2449.2,1.6855,8.7613
2460.9,0.88202,11.612
2472.7,0.54029,10.775
2484.4,1.3034,8.7876
2496.1,0.81551,6.7839
2507.8,0.84218,8.6511
2519.5,-0.28273,6.8016
2531.3,-0.47139,7.6368
2543,-2.3236,8.4745
2554.7,-1.339,6.948
2566.4,0.013468,8.4731
2578.1,0.30883,10.477
2589.8,1.4248,10.417
2601.6,-1.9699,10.608
2613.3,-1.6268,7.3746
2625,0.74439,6.9079
2636.7,2.3297,12.134
2648.4,0.11802,10.46
2660.2,0.93951,7.8888
2671.9,1.7128,10.139
2683.6,1.9348,10.82
2695.3,1.0811,9.9738
2707,0.95917,12.854
2718.8,2.6463,7.1743
2730.5,1.2824,10.053
2742.2,-0.60978,9.8662
2753.9,-2.3259,10.365
2765.6,-1.0806,7.8497
2777.3,1.243,7.9997
2789.1,2.4928,8.5529
2800.8,2.0025,6.8549
2812.5,0.482,8.3457
2824.2,-2.585,9.8616
2835.9,-1.8248,7.4493
2847.7,-2.5016,7.196
2859.4,-0.56253,5.5101
2871.1,0.33517,8.9858
2882.8,0.9886,7.6558
2894.5,2.0656,8.2782
2906.3,0.43959,6.7639
2918,-3.7977,6.1253
2929.7,-3.166,6.7747
2941.4,0.074144,7.0078
2953.1,1.008,6.4108
2964.8,1.3561,8.5163
2976.6,2.7686,9.2375
2988.3,1.5844,9.2428
3000,-2.9413,8.9841
3011.7,-1.5993,8.9114
3023.4,0.40687,9.3496
3035.2,1.0858,9.5531
3046.9,-4.1161,9.5087
3058.6,-2.4726,7.6333
3070.3,-2.2882,5.7397
3082,-3.1049,4.7303
3093.8,-1.3951,6.1311
3105.5,-1.0683,5.0645
3117.2,-1.7932,5.8585
3128.9,-0.56467,5.8241
3140.6,-2.2007,8.425
3152.3,0.12951,6.7874
3164.1,0.056798,9.9108
3175.8,-1.2582,10.307
3187.5,0.92956,8.423
3199.2,-0.81047,6.1645
3210.9,-3.1135,4.2464
3222.7,-1.9683,8.0388
3234.4,-1.2924,8.9562
3246.1,-0.85586,7.6939
3257.8,-1.3439,6.6615
3269.5,-2.778,6.3942
3281.3,0.67837,8.4328
3293,-0.17272,7.9566
3304.7,-0.38152,6.5121
3316.4,-0.83364,5.8352
3328.1,-1.5586,6.9194
3339.8,-0.20208,9.4063
3351.6,-0.34861,6.3863
3363.3,-1.146,6.9589
3375,-0.75152,5.5505
3386.7,-1.9838,9.5628
3398.4,-3.9926,10.255
3410.2,-3.5503,8.0597
3421.9,-1.3821,9.6148
3433.6,-0.60573,7.3437
3445.3,-3.4107,1.7706
3457,-4.0964,5.7518
3468.8,0.9346,6.8903
3480.5,0.27219,8.2113
3492.2,-3.5641,10.211
3503.9,-1.5136,6.4632
3515.6,0.93129,9.3611
3527.3,2.415,6.0911
3539.1,-1.5674,5.8449
3550.8,-0.9601,5.1602
3562.5,-2.1745,5.6464
3574.2,-1.7427,7.8007
3585.9,-1.6964,7.6972
3597.7,-1.5191,9.4178
3609.4,-1.0586,9.6526
3621.1,-1.0743,8.469
3632.8,-3.1419,7.4304
3644.5,-0.87803,6.1171
3656.3,1.2046,8.6244
3668,-1.7074,9.3305
3679.7,-3.7723,7.5953
3691.4,-6.1706,5.4422
3703.1,-4.6026,6.2252
3714.8,-3.8657,7.8996
3726.6,0.41565,8.3357
3738.3,0.43479,7.3736
3750,-2.3211,7.5519
3761.7,-2.8242,6.0918
3773.4,-1.6102,6.6159
3785.2,-1.6018,6.8712
3796.9,-2.2437,4.6481
3808.6,-1.9306,9.3785
3820.3,0.96815,10.745
3832,-0.98263,10.081
3843.8,1.4324,8.6334
3855.5,1.0729,8.0754
3867.2,-3.935,10.867
3878.9,0.87347,12.609
3890.6,-0.60214,10.108
3902.3,-4.0726,6.4575
3914.1,-1.9189,4.1931
3925.8,-2.7749,5.2341
3937.5,-0.27786,7.1337
3949.2,-0.0049521,3.416
3960.9,-1.3861,4.9388
3972.7,-3.171,6.4785
3984.4,-1.1564,7.9601
3996.1,-1.5829,6.2581
4007.8,-2.0587,7.8843
4019.5,-1.2101,8.4584
4031.3,0.84216,8.7016
4043,-2.0899,6.6197
4054.7,-2.8693,3.6836
4066.4,-2.3623,6.4408
4078.1,-3.9741,6.5336
4089.8,-1.1712,5.0874
4101.6,0.5535,3.4717
4113.3,-0.63129,3.9703
4125,-1.6182,2.8966
4136.7,-2.5138,4.4022
4148.4,-3.4076,3.7942
4160.2,-3.5909,6.3503
4171.9,-2.2318,5.8424
4183.6,-2.0273,6.3719
4195.3,-2.6416,7.2258
4207,-1.848,7.895
4218.8,0.14758,8.3566
4230.5,-0.16297,2.0748
4242.2,-0.63807,5.4002
4253.9,-0.30347,5.2635
4265.6,-2.803,2.2982
4277.3,-4.2483,3.8537
4289.1,-2.0907,3.3524
4300.8,-7.6099,5.864
4312.5,-4.8744,5.1687
4324.2,-4.522,4.0834
4335.9,-5.4477,1.8566
4347.7,-3.6319,6.9974
4359.4,-5.821,8.4739
4371.1,-3.1845,9.2677
4382.8,-5.63,8.2238
4394.5,-3.3599,8.7764
4406.3,-3.4263,7.0002
4418,-5.8169,1.8189
4429.7,-4.8179,4.6909
4441.4,-4.4807,4.1722
4453.1,-1.7654,2.4673
4464.8,-2.0149,2.7277
4476.6,-2.2295,6.2138
4488.3,-0.43352,6.8694
4500,-0.57131,5.875
4511.7,-2.002,6.0632
4523.4,-3.6359,5.5948
4535.2,-5.0559,5.8711
4546.9,-2.1646,7.9044
4558.6,0.40266,6.2897
4570.3,0.14858,2.1947
4582,-1.4014,6.3564
4593.8,-3.8714,7.4874
4605.5,-6.1312,7.2952
4617.2,-5.1024,5.6733
4628.9,-1.7147,3.0668
4640.6,-2.2807,6.5409
4652.3,-4.6718,7.3559
4664.1,-3.0262,5.5418
4675.8,-0.76967,4.325
4687.5,-1.1227,7.4057
4699.2,-2.076,4.9632
4710.9,-3.6567,4.0114
4722.7,-2.1797,5.6512
4734.4,-3.1947,8.1748
4746.1,-4.8661,6.8364
4757.8,-4.9833,4.553
4769.5,-3.8726,7.0146
4781.3,-2.8842,7.0875
4793,-1.2499,5.2238
4804.7,0.57376,2.4862
4816.4,-2.1044,4.1053
4828.1,-2.9246,4.626
4839.8,-3.0689,3.1268
4851.6,-5.7183,4.9979
4863.3,-5.0567,3.9754
4875,-4.0896,4.0284
4886.7,-3.6566,1.9514
4898.4,-5.4836,3.6987
4910.2,-3.6243,4.6934
4921.9,-4.9312,8.7515
4933.6,-7.2307,8.3206
4945.3,-7.0738,4.8049
4957,-4.6111,2.0706
4968.8,-2.2255,2.6017
4980.5,-2.792,1.8544
4992.2,-2.8038,5.2378
5003.9,-2.3493,6.3007
5015.6,-2.6355,6.4409
5027.3,-2.7604,8.1209
5039.1,-3.9501,6.3346
5050.8,-4.0225,6.8003
5062.5,-8.8381,6.7338
5074.2,-7.4147,4.4154
5085.9,-4.5251,4.171
5097.7,-3.6871,6.9728
5109.4,-3.6638,4.0533
5121.1,-4.5422,1.1738
5132.8,-5.3485,3.4039
5144.5,-6.0964,1.2098
5156.3,-8.0078,1.9915
5168,-5.8197,3.1499
5179.7,-5.6245,4.4718
5191.4,-4.7788,7.3562
5203.1,-4.8744,7.3204
5214.8,-5.3713,7.689
5226.6,-3.5074,6.8022
5238.3,-3.5924,3.0859
5250,-5.2567,1.32
5261.7,-8.2672,6.0999
5273.4,-5.1353,5.395
5285.2,-5.829,4.3841
5296.9,-4.6835,4.6193
5308.6,-7.0938,5.3953
5320.3,-6.7268,4.8148
5332,-3.741,3.5735
5343.8,-3.8509,5.4404
5355.5,-1.9756,5.4634
5367.2,-5.936,5.3674
5378.9,-5.4663,5.4886
5390.6,-6.4136,2.5537
5402.3,-7.0053,4.0782
5414.1,-3.1537,5.4337
5425.8,-3.5944,3.1047
5437.5,-7.864,3.5662
5449.2,-5.1391,4.4189
5460.9,-1.4927,4.9593
5472.7,-3.0386,3.6815
5484.4,-3.4126,2.5312
5496.1,-4.6584,6.1115
5507.8,-4.4168,9.8125
5519.5,-5.6878,7.4298
5531.3,-5.8016,5.0687
5543,-5.335,5.3666
5554.7,-5.091,5.1309
5566.4,-5.2546,5.536
5578.1,-4.9561,2.3326
5589.8,-3.5502,0.48538
5601.6,-4.3907,1.8464
5613.3,-5.2147,4.4663
5625,-5.0888,4.5191
5636.7,-4.6228,3.3777
5648.4,-6.4417,3.0274
5660.2,-5.9357,3.2787
5671.9,-6.8318,1.4501
5683.6,-5.1674,1.3
5695.3,-6.6881,3.7814
5707,-4.2735,7.0526
5718.8,-1.7439,4.7972
5730.5,-4.2179,5.9194
5742.2,-6.9677,6.2967
5753.9,-5.428,4.6387
5765.6,-4.0533,4.9157
5777.3,-3.8325,3.7128
5789.1,-0.98154,3.7944
5800.8,-2.3107,6.4641
5812.5,-5.5858,5.7795
5824.2,-4.309,1.5079
5835.9,-3.5475,1.1795
5847.7,-6.5054,6.6207
5859.4,-3.4575,6.4046
5871.1,-4.4463,0.44013
5882.8,-6.012,4.3367
5894.5,-4.2818,4.4118
5906.3,-3.9256,2.6609
5918,-5.309,3.5235
5929.7,-4.808,3.6936
5941.4,-3.4972,5.5399
5953.1,-5.1226,4.5458
5964.8,-6.5705,3.1232
5976.6,-4.5993,2.3283
5988.3,-3.0053,3.1524
6000,-4.1957,3.8116
6011.7,-4.3748,2.0164
6023.4,-0.68483,3.6368
6035.2,-3.7077,2.518
6046.9,-6.3357,1.5883
6058.6,-6.8777,5.7045
6070.3,-3.5915,5.6903
6082,-3.8404,2.8622
6093.8,-8.0088,3.2374
6105.5,-5.3196,2.7853
6117.2,-5.1621,3.9515
6128.9,-5.8794,2.1271
6140.6,-5.5107,2.076
6152.3,-9.1952,2.0088
6164.1,-5.7884,2.584
6175.8,-4.1688,2.6113
6187.5,-5.2815,1.0961
6199.2,-7.0108,4.2927
6210.9,-7.2724,3.3387
6222.7,-4.3179,4.8924
6234.4,-1.6738,6.4245
6246.1,-4.9903,8.465
6257.8,-6.8012,4.2385
6269.5,-7.4397,1.4637
6281.3,-4.7086,1.2964
6293,-3.5032,1.9522
6304.7,-7.7776,2.0551
6316.4,-8.2463,-0.050085
6328.1,-7.3907,0.81514
6339.8,-7.1855,3.4256
6351.6,-4.8768,4.3492
6363.3,-6.1916,6.0998
6375,-7.5191,3.3275
6386.7,-4.9046,0.967
6398.4,-1.3875,2.4576
6410.2,-2.6375,2.4677
6421.9,-5.92,3.3229
6433.6,-5.3736,3.9781
6445.3,-6.0686,3.3015
6457,-5.8062,2.0483
6468.8,-6.4091,3.5844
6480.5,-5.4878,4.0721
6492.2,-5.2248,3.0278
6503.9,-7.4779,-0.33988
6515.6,-5.5738,5.3087
6527.3,-6.0491,6.7996
6539.1,-7.3666,0.60619
6550.8,-8.795,2.434
6562.5,-7.5831,2.4913
6574.2,-9.2348,2.5819
6585.9,-8.9063,2.1658
6597.7,-8.1111,4.2979
6609.4,-7.119,2.8674
6621.1,-6.8652,3.2082
6632.8,-7.3647,2.5866
6644.5,-11.743,-0.82959
6656.3,-7.7084,-1.0928
6668,-8.4283,2.5922
6679.7,-10.641,4.2546
6691.4,-8.4847,5.3936
6703.1,-6.2067,2.1759
6714.8,-6.9389,1.4595
6726.6,-9.8782,3.9482
6738.3,-9.0958,0.3329
6750,-7.1112,-2.1284
6761.7,-7.0987,2.8534
6773.4,-3.7772,4.2968
6785.2,-3.2621,4.1083
6796.9,-6.6281,5.2454
6808.6,-7.7893,5.6859
6820.3,-7.4191,7.0663
6832,-8.6316,7.3345
6843.8,-8.2636,5.4403
6855.5,-7.5599,3.2527
6867.2,-5.9471,2.8047
6878.9,-7.9306,2.7664
6890.6,-7.5223,3.8507
6902.3,-5.1328,2.9353
6914.1,-4.605,0.72611
6925.8,-8.4057,-0.89993
6937.5,-7.0792,2.8646
6949.2,-4.8822,2.474
6960.9,-4.0551,1.931
6972.7,-5.923,2.7181
6984.4,-11.167,2.8739
6996.1,-5.8436,2.7766
7007.8,-5.0757,1.331
7019.5,-5.3362,2.38
7031.3,-6.4748,2.0433
7043,-6.596,-0.28292
7054.7,-3.8484,0.60126
7066.4,-5.473,-2.0669
7078.1,-7.4666,-1.1077
7089.8,-7.3412,-2.1476
7101.6,-9.3912,0.20173
7113.3,-7.1975,3.3221
7125,-6.6036,3.6209
7136.7,-5.4391,2.764
7148.4,-7.8765,1.9365
7160.2,-5.6803,1.8932
7171.9,-4.6307,-1.6478
7183.6,-7.2035,-0.096958
7195.3,-11.004,0.1503
7207,-9.3185,-1.2978
7218.8,-9.4449,0.93886
7230.5,-7.6448,0.63921
7242.2,-8.0882,0.87951
7253.9,-6.5491,-0.24772
7265.6,-7.9758,0.71882
7277.3,-5.5084,2.5261
7289.1,-4.8373,4.2608
7300.8,-6.7179,4.3412
7312.5,-2.8256,2.3935
7324.2,-2.0571,1.4113
7335.9,-6.344,3.4565
7347.7,-4.8109,2.5058
7359.4,-2.5552,0.79137
7371.1,-2.0359,-1.8417
7382.8,-1.3605,-2.8162
7394.5,-3.4112,0.57953
7406.3,-0.68099,2.9996
7418,0.78998,2.8692
7429.7,2.915,2.6013
7441.4,2.7597,-1.6366
7453.1,7.3576,0.41578
7464.8,12.88,1.1102
7476.6,13.677,1.3955
7488.3,18.652,-0.14497
7500,22.099,1.394
7511.7,44.781,17.561
7523.4,53.889,26.472
7535.2,50.782,23.227
7546.9,30.316,4.7183
7558.6,20.641,1.4941
7570.3,13.403,1.5204
7582,13.565,3.5596
7593.8,9.2819,3.4803
7605.5,4.6822,4.675
7617.2,3.1926,3.3794
7628.9,2.8163,1.6824
7640.6,1.7597,2.7118
7652.3,1.216,0.78886
7664.1,-1.0914,0.54357
7675.8,-2.9624,3.5165
7687.5,-3.1179,4.8097
7699.2,-6.27,3.2227
7710.9,-3.3119,1.1673
7722.7,-1.8174,2.108
7734.4,-4.6454,3.6968
7746.1,-5.293,3.5924
7757.8,-4.2309,3.979
7769.5,-7.7123,2.5856
7781.3,-8.8784,0.34325
7793,-6.0749,-0.30951
7804.7,-4.9688,1.2627
7816.4,-4.4719,1.1149
7828.1,-6.5276,1.8989
7839.8,-5.3554,4.768
7851.6,-4.8563,3.2932
7863.3,-6.4393,0.80497
7875,-7.8805,0.024038
7886.7,-8.1814,-2.0284
7898.4,-9.0027,-1.0061
7910.2,-10.343,-0.25228
7921.9,-9.8271,-3.3865
7933.6,-10.009,1.6503
7945.3,-6.7485,2.7575
7957,-7.5819,-1.5061
7968.8,-8.2567,-3.3382
7980.5,-6.4824,-1.8404
7992.2,-5.3162,0.41379
8003.9,-7.3016,0.050496
8015.6,-7.9685,-1.0771
8027.3,-7.9734,1.5658
8039.1,-9.8589,1.8388
8050.8,-8.3092,-3.2224
8062.5,-8.7477,0.46235
8074.2,-11.648,1.3646
8085.9,-11.985,2.0275
8097.7,-12.948,6.203
8109.4,-9.8404,5.7869
8121.1,-9.0582,1.1799
8132.8,-9.4716,2.2317
8144.5,-10.231,3.4266
8156.3,-11.362,2.3796
8168,-9.5304,1.7789
8179.7,-9.951,-0.099948
8191.4,-10.231,0.012873
8203.1,-11.1,-2.2725
8214.8,-7.2404,1.3732
8226.6,-7.5698,3.3478
8238.3,-10.978,0.15968
8250,-10.366,1.5911
8261.7,-9.879,2.7043
8273.4,-12.206,0.69992
8285.2,-10.255,-0.85303
8296.9,-6.3593,-1.083
8308.6,-5.3242,-0.25214
8320.3,-7.0397,1.2452
8332,-11.732,1.5442
8343.8,-8.4047,0.44421
8355.5,-9.3543,-1.0253
8367.2,-10.5,-1.3745
8378.9,-9.9354,2.2012
8390.6,-11.685,3.3917
8402.3,-9.7346,0.98696
8414.1,-8.3556,0.31257
8425.8,-9.1666,-0.082442
8437.5,-9.7047,0.041033
8449.2,-5.3742,0.19134
8460.9,-6.1952,1.2883
8472.7,-9.9641,2.6901
8484.4,-9.6972,0.56961
8496.1,-7.6215,-1.648
8507.8,-5.613,-1.03
8519.5,-5.673,-0.86961
8531.3,-6.0032,-1.551
8543,-7.589,-0.67259
8554.7,-8.84,-1.5246
8566.4,-7.8104,0.30814
8578.1,-8.7274,0.7293
8589.8,-8.6804,-1.2204
8601.6,-8.9852,0.16232
8613.3,-10.339,-1.2446
8625,-10.48,3.4303
8636.7,-11.756,1.0729
8648.4,-10.749,0.95856
8660.2,-9.2338,3.262
8671.9,-8.094,1.1314
8683.6,-9.3015,0.76127
8695.3,-9.4256,0.85618
8707,-8.3251,-1.8722
8718.8,-9.0855,-1.8384
8730.5,-9.0886,-1.3361
8742.2,-7.0391,-0.49093
8753.9,-10.506,-0.21238
8765.6,-11.058,-1.7307
8777.3,-9.889,3.733
8789.1,-9.4044,6.1603
8800.8,-11.357,2.2812
8812.5,-10.943,-1.8528
8824.2,-11.526,-2.7119
8835.9,-11.235,-2.7789
8847.7,-10.795,-1.3725
8859.4,-9.2152,-1.8264
8871.1,-10.805,-0.2257
8882.8,-9.3449,-1.8257
8894.5,-9.118,1.2807
8906.3,-7.289,4.4493
8918,-6.8765,1.1491
8929.7,-8.6364,-0.090028
8941.4,-9.8091,-2.8282
8953.1,-13.505,-1.1432
8964.8,-11.919,-1.5573
8976.6,-10.222,-0.98838
8988.3,-11.389,-0.25327
9000,-9.711,2.046
9011.7,-10.744,2.4729
9023.4,-12.059,2.2711
9035.2,-11.254,1.4348
9046.9,-10.48,-2.5033
9058.6,-11.948,-4.356
9070.3,-10.791,-0.09051
9082,-10.305,0.64869
9093.8,-11.84,-0.14012
9105.5,-11.835,1.8178
9117.2,-10.853,1.3966
9128.9,-8.8495,0.76202
9140.6,-6.8843,-1.6293
9152.3,-8.128,-1.134
9164.1,-10.236,1.8605
9175.8,-11.125,-0.1102
9187.5,-10.544,-1.806
9199.2,-9.7091,-0.13067
9210.9,-9.1389,1.6305
9222.7,-9.1988,-1.9785
9234.4,-8.3816,-2.6718
9246.1,-9.7788,-3.4389
9257.8,-10.83,-3.673
9269.5,-9.9155,-1.0163
9281.3,-12.359,-0.59553
9293,-11.38,-1.6775
9304.7,-10.807,-0.054586
9316.4,-11.473,-3.8676
9328.1,-11.472,-4.8664
9339.8,-10.487,-3.0797
9351.6,-9.6793,-0.59551
9363.3,-11.782,0.13935
9375,-12.657,-2.545
9386.7,-9.884,-0.50268
9398.4,-9.6615,3.2966
9410.2,-13.313,1.0664
9421.9,-12.21,-0.14558
9433.6,-8.2176,-2.7308
9445.3,-8.6618,-4.3211
9457,-8.3654,-4.5348
9468.8,-7.0847,-4.2752
9480.5,-9.0008,-3.496
9492.2,-12.039,-2.8726
9503.9,-10.479,-2.1156
9515.6,-9.7546,1.8116
9527.3,-11.076,1.2022
9539.1,-13.841,0.97684
9550.8,-10.462,-0.86305
9562.5,-9.353,-3.033
9574.2,-12.638,1.2953
9585.9,-12.295,-2.8547
9597.7,-12.162,0.25462
9609.4,-11.662,-0.98451
9621.1,-10.892,-5.5047
9632.8,-11.563,-3.8645
9644.5,-9.1714,-2.2185
9656.3,-8.9581,-1.5696
9668,-11.122,-1.0581
9679.7,-11.873,-2.9694
9691.4,-11.34,-4.4699
9703.1,-9.7266,-1.8096
9714.8,-11.498,-2.355
9726.6,-9.8847,-3.288
9738.3,-9.3335,-1.1726
9750,-10.358,-1.7878
9761.7,-11.967,-5.2282
9773.4,-10.543,1.0025
9785.2,-8.7855,0.85235
9796.9,-7.6649,-0.94936
9808.6,-11.221,-1.7075
9820.3,-12.916,-4.2393
9832,-12.69,0.77917
9843.8,-11.108,1.8363
9855.5,-9.151,-0.29981
9867.2,-10.252,-2.7667
9878.9,-12.592,-0.91865
9890.6,-11.626,0.28515
9902.3,-10.833,-1.8772
9914.1,-9.1107,-3.4559
9925.8,-9.3296,-2.6734
9937.5,-9.2595,-3.0775
9949.2,-11.091,-4.0941
9960.9,-7.4299,-3.2589
9972.7,-8.6886,-0.86845
9984.4,-10.332,-1.1654
9996.1,-9.2883,-1.7293
10008,-11.994,-4.2032
10020,-10.51,-0.97725
10031,-9.7758,1.2076
10043,-10.66,2.2062
10055,-13.795,-0.095358
10066,-14.143,-0.90723
10078,-12.45,-0.83623
10090,-11.859,-1.3777
10102,-12.386,-2.4363
10113,-14.54,-1.4177
10125,-11.023,-2.2179
10137,-7.5447,-0.012163
10148,-9.2791,-1.7614
10160,-9.7455,-3.228
10172,-8.8804,-0.4469
10184,-9.5875,-0.856
10195,-11.638,-4.179
10207,-10.918,-2.0303
10219,-9.6709,-3.0149
10230,-10.85,-2.7285
10242,-10.874,-4.0173
10254,-11.241,-4.7599
10266,-11.411,-4.4668
10277,-14.407,-8.2998
10289,-15.938,-3.7877
10301,-15.009,-2.2036
10313,-13.219,-1.4799
10324,-14.303,-2.094
10336,-12.438,-0.50745
10348,-11.673,-1.3256
10359,-12.347,-1.353
10371,-14.992,-0.43923
10383,-11.746,-1.8803
10395,-13.576,-2.1736
10406,-12.94,-3.4625
10418,-12.374,-3.0959
10430,-11.645,-3.1396
10441,-11.255,-1.0423
10453,-11.208,-1.2615
10465,-11.71,-1.0786
10477,-11.293,-1.2916
10488,-12.499,-1.7875
10500,-11.562,1.5747
10512,-11.677,2.9408
10523,-11.178,2.1572
10535,-11.867,-0.9164
10547,-16.337,-1.2948
10559,-11.027,-0.45073
10570,-9.9557,-3.764
10582,-13.282,-3.7727
10594,-11.692,-1.0399
10605,-13.221,-0.24605
10617,-11.841,0.33127
10629,-10.71,-1.5916
10641,-7.7614,-2.039
10652,-8.7884,-1.9076
10664,-15.848,-1.3027
10676,-13.127,-3.5008
10688,-11.114,-2.8826
10699,-10.958,-4.5512
10711,-9.4024,-2.789
10723,-9.7538,-0.60471
10734,-14.445,-1.1331
10746,-15.734,-5.216
10758,-14.793,-2.3114
10770,-14.863,0.88536
10781,-15.915,-0.25371
10793,-12.063,-0.3943
10805,-10.502,-1.9079
10816,-11.521,-2.0804
10828,-12.208,-2.5323
10840,-11.104,-3.2037
10852,-12.031,-1.5983
10863,-12.741,0.23345
10875,-14.189,-0.3621
10887,-11.627,-4.7263
10898,-8.6936,-6.284
10910,-9.3988,-4.4292
10922,-9.2673,-2.9978
10934,-10.442,-3.6967
10945,-11.881,-5.0664
10957,-9.2752,-1.9989
10969,-13.239,-0.59631
10980,-16.017,-1.1855
10992,-12.436,-4.5551
11004,-9.9075,-5.5303
11016,-11.759,-2.3714
11027,-13.021,-3.0911
11039,-13.335,-5.0536
11051,-13.804,0.14266
11063,-12.047,-1.4686
11074,-12.047,-7.4937
11086,-11.631,-5.269
11098,-11.544,-4.793
11109,-12.837,-1.8489
11121,-11.648,-3.9081
11133,-11.871,-5.2262
11145,-15.695,-5.5796
11156,-15.304,-5.3227
11168,-14.068,-5.7119
11180,-15.114,-2.8519
11191,-12.071,-4.8822
11203,-12.775,-4.7446
11215,-13.243,-4.1161
11227,-11.881,-3.0543
11238,-11.748,-3.019
11250,-14.477,-1.7633
11262,-13.832,-2.0557
11273,-12.591,-7.1484
11285,-10.938,-4.6812
11297,-13.712,-6.0688
11309,-17.153,-4.342
11320,-11.415,-4.1708
11332,-12.329,-4.2044
11344,-12.937,-5.6922
11355,-14.387,-2.296
11367,-14.492,-2.5972
11379,-12.783,-4.0204
11391,-15.624,-3.9702
11402,-16.589,-5.3694
11414,-13.578,-5.7824
11426,-12.751,-6.4977
11438,-12.631,-1.365
11449,-12.934,0.075654
11461,-13.999,-5.9413
11473,-11.576,-7.7489
11484,-11.22,-5.3305
11496,-14.485,-2.7825
11508,-13.581,0.37036
11520,-9.694,-0.091343
11531,-11.377,-2.9278
11543,-14.379,-4.4148
11555,-11.935,-1.3072
11566,-14.051,-1.8366
11578,-13.426,-4.6982
11590,-14.762,-5.84
11602,-13.328,-1.1499
11613,-11.002,0.89648
11625,-10.301,-1.8924
11637,-10.258,-4.5136
11648,-12.379,-4.7985
11660,-12.192,-4.7722
11672,-14.236,-2.9482
11684,-12.279,-2.7438
11695,-11.962,-3.5956
11707,-13.216,-3.3828
11719,-12.428,-3.9035
11730,-12.651,-5.159
11742,-10.801,-8.2128
11754,-11.966,-0.68906
11766,-16.33,-1.502
11777,-13.719,-5.0171
11789,-12.616,-3.6007
11801,-11.495,-2.6311
11813,-11.224,-4.0648
11824,-12.133,-7.262
11836,-12.891,-5.2177
11848,-14.079,-0.38697
11859,-11.778,0.40658
11871,-10.258,-0.90162
11883,-10.389,-2.6462
11895,-13.475,-2.2899
11906,-15.274,-0.28286
11918,-15.217,-0.9511
11930,-15.92,-3.8522
11941,-14.873,-5.7256
11953,-12.675,-4.9226
11965,-11.11,-4.2727
11977,-13.824,-0.4029
11988,-12.774,-3.6832
12000,-12.817,-7.2713
12012,-15.021,-6.4021
12023,-15.068,-5.1986
12035,-16.462,-2.2518
12047,-12.129,-3.2526
12059,-10.208,-5.5507
12070,-14.567,-9.2801
12082,-15.393,-7.7375
12094,-12.2,-8.0391
12105,-12.212,-5.4669
12117,-12.474,-6.6041
12129,-12.349,-8.7829
12141,-11.594,-7.2561
12152,-14.03,-3.7967
12164,-12.625,1.6368
12176,-10.495,2.1976
12188,-12.788,-0.48736
12199,-15.004,-4.0733
12211,-14.169,-5.528
12223,-13.514,-2.1605
12234,-11.269,-1.9003
12246,-11.579,-1.0091
12258,-12.331,-1.4701
12270,-11.625,-2.8364
12281,-11.223,-4.1591
12293,-12.75,-6.4718
12305,-16.251,-5.1138
12316,-19.746,-4.0717
12328,-14.419,-3.5947
12340,-11.329,-3.6597
12352,-13.175,-4.1059
12363,-13.535,-7.8347
12375,-11.875,-8.8727
12387,-10.684,-9.3886
12398,-10.771,-5.5074
12410,-9.9373,-5.2329
12422,-10.203,-6.875
12434,-11.664,-2.2125
12445,-12.546,-3.7475
12457,-11.194,-4.3
12469,-12.038,-4.8374
12480,-12.606,-4.8234
12492,-11.583,-6.51
12504,-12.294,-7.1617
12516,-13.801,-2.7153
12527,-12.678,-1.2218
12539,-13.262,-2.6277
12551,-13.705,-2.3932
12563,-14.576,-6.0825
12574,-13.499,-3.8302
12586,-13.149,-2.5341
12598,-11.337,-1.8338
12609,-9.8089,-2.2439
12621,-11.479,-2.1864
12633,-13.289,-3.822
12645,-11.792,-4.5869
12656,-12.243,-3.46
12668,-13.363,-3.7088
12680,-14.689,-2.2521
12691,-14.99,-1.8725
12703,-13.719,-6.3145
12715,-12.957,-0.57219
12727,-14.222,1.4934
12738,-13.577,-3.0039
12750,-14.428,-5.4771
12762,-14.315,-1.3297
12773,-13.144,-2.4518
12785,-12.959,-2.3088
12797,-13.444,1.0269
12809,-13.014,0.89324
12820,-11.948,-1.8909
12832,-11.987,-4.306
12844,-14.913,-5.8383
12855,-13.683,-8.0127
12867,-13.871,-9.7847
12879,-16.753,-6.3088
12891,-15.796,-8.1901
12902,-13.81,-5.0997
12914,-12.36,-2.8814
12926,-12.51,-5.0829
12938,-12.382,-8.3959
12949,-14.942,-7.8115
12961,-12.944,-6.2398
12973,-11.337,-8.3397
12984,-11.895,-6.874
12996,-13.773,-4.2499
13008,-12.436,-2.2602
13020,-12.757,-2.8749
13031,-15.887,-4.5963
13043,-13.877,-3.2965
13055,-11.502,-3.8795
13066,-14.84,-4.4214
13078,-17.94,-5.6399
13090,-12.742,-2.9677
13102,-11.553,-2.5403
13113,-14.206,-3.2626
13125,-14.583,-3.1472
13137,-14.753,-3.9483
13148,-15.916,-3.7691
13160,-15.671,-2.4267
13172,-17.582,-0.22338
13184,-15.235,-2.0725
13195,-15.872,-4.438
13207,-12.75,-5.0539
13219,-12.595,-2.8361
13230,-15.561,0.46985
13242,-16.627,0.38859
13254,-17.401,-1.1777
13266,-17.065,-2.4031
13277,-12.51,-6.3974
13289,-11.613,-4.9687
13301,-12.299,-5.6686
13313,-17.35,-6.7321
13324,-15.633,-7.2247
13336,-16.146,-3.0895
13348,-17.858,-3.9766
13359,-17.651,-8.0462
13371,-12.989,-6.9271
13383,-14.255,-6.46
13395,-15.066,-5.4001
13406,-16.238,-6.9171
13418,-15.757,-7.592
13430,-15.648,-6.8953
13441,-15.757,-6.7743
13453,-14.979,-5.7971
13465,-13.024,-7.812
13477,-14.771,-6.2814
13488,-16.761,-4.0359
13500,-12.992,-7.3322
13512,-14.052,-9.5504
13523,-17.351,-9.6283
13535,-14.688,-9.8049
13547,-13.456,-7.9401
13559,-11.953,-6.0796
13570,-12.46,-5.1376
13582,-14.651,-5.3598
13594,-13.152,-7.0392
13605,-13.622,-8.966
13617,-15.028,-7.9086
13629,-17.309,-6.2213
13641,-14.424,-4.5765
13652,-13.101,-5.0977
13664,-14.81,-3.601
13676,-16.077,-1.8725
13688,-16.632,-2.5039
13699,-15.577,-4.2745
13711,-16.152,-5.6213
13723,-14.96,-6.5573
13734,-14.091,-7.3272
13746,-15.994,-9.0912
13758,-16.395,-6.0195
13770,-15.031,-7.555
13781,-16.269,-10.47
13793,-16.977,-7.7346
13805,-14.925,-6.4167
13816,-12.58,-5.1206
13828,-12.956,-5.8382
13840,-13.831,-6.5969
13852,-13.559,-7.3077
13863,-14.683,-5.646
13875,-16.368,-8.2234
13887,-14.912,-8.1924
13898,-15.571,-3.7873
13910,-16.099,-4.7065
13922,-15.008,-6.9821
13934,-17.771,-4.6247
13945,-16.81,-5.188
13957,-16.877,-8.4674
13969,-14.456,-8.0085
13980,-16.025,-5.4474
13992,-14.988,-2.3831
14004,-15.463,-3.3772
14016,-16.155,-8.893
14027,-16.716,-7.842
14039,-16.264,-8.2086
14051,-15.614,-7.8876
14063,-15.01,-7.9408
14074,-15.403,-8.4068
14086,-15.62,-4.5394
14098,-16.026,-3.2354
14109,-15.258,-5.4321
14121,-14.662,-9.6236
14133,-14.818,-7.6007
14145,-16.659,-8.4615
14156,-14.913,-6.2132
14168,-14.499,-3.4158
14180,-14.833,-4.3321
14191,-15.721,-5.7775
14203,-14.817,-7.7275
14215,-15.393,-8.0541
14227,-16.539,-7.366
14238,-16.666,-8.9545
14250,-16.522,-7.4039
14262,-13.523,-3.5538
14273,-14.668,-6.0153
14285,-15.567,-2.7334
14297,-13.875,-2.1701
14309,-14.988,-4.7881
14320,-14.42,-3.6362
14332,-14.675,-4.1943
14344,-16.287,-3.2482
14355,-16.977,-3.2913
14367,-17.019,-6.7598
14379,-17.455,-9.2998
14391,-14.153,-8.5672
14402,-15.995,-7.3856
14414,-16.036,-7.9951
14426,-16.583,-5.8765
14438,-15.44,-1.9716
14449,-16.954,-4.6989
14461,-18.115,-7.7887
14473,-13.914,-6.8285
14484,-11.972,-8.2924
14496,-13.748,-9.6149
14508,-17.149,-7.6193
14520,-15.698,-4.8028
14531,-13.502,-7.2423
14543,-13.095,-7.3308
14555,-17.225,-7.4145
14566,-17.082,-8.9166
14578,-15.904,-6.5944
14590,-16.222,-6.1506
14602,-17.047,-3.3374
14613,-16.53,-5.811
14625,-15.433,-9.6488
14637,-12.494,-8.1134
14648,-12.122,-8.1594
14660,-13.186,-8.927
14672,-14.639,-7.3355
14684,-14.087,-6.8849
14695,-17.202,-6.7582
14707,-16.064,-5.8765
14719,-16.531,-7.0307
14730,-19.206,-7.1873
14742,-14.869,-5.6999
14754,-15.045,-4.0203
14766,-15.678,-5.0189
14777,-13.792,-8.9143
14789,-14.092,-7.8312
14801,-17.625,-5.3281
14813,-19.206,-6.1276
14824,-18.407,-7.3537
14836,-15.763,-12.064
14848,-17.442,-11.153
14859,-16.965,-8.7291
14871,-18.151,-7.6736
14883,-19.061,-4.6597
14895,-16.581,-6.2001
14906,-14.825,-7.8618
14918,-16.058,-5.3837
14930,-17.702,-4.8976
14941,-17.698,-7.1077
14953,-15.911,-7.2821
14965,-15.977,-6.5546
14977,-16.699,-3.4129
14988,-19.023,-5.9696
15000,-17.361,-8.4706
15012,-17.256,-6.3858
15023,-19.19,-6.3243
15035,-17.511,-3.2124
15047,-17.789,-2.4021
15059,-19.603,-3.9018
15070,-18.518,-7.493
15082,-14.065,-4.5016
15094,-15.2,-4.6184
15105,-18.164,-5.2908
15117,-15.903,-7.9495
15129,-14.72,-12.346
15141,-16.4,-12.514
15152,-17.041,-11.129
15164,-14.709,-8.2502
15176,-15.889,-7.3722
15188,-16.145,-7.899
15199,-15.581,-5.1776
15211,-19.28,-6.4932
15223,-21.232,-4.9224
15234,-21.239,-4.5884
15246,-19.698,-5.9356
15258,-18.403,-5.0214
15270,-18.112,-5.7852
15281,-16.102,-7.04
15293,-18.098,-8.013
15305,-20.341,-9.8987
15316,-17.929,-6.4018
15328,-17.869,-7.0644
15340,-16.729,-8.2785
15352,-17.227,-7.575
15363,-18.626,-6.6469
15375,-16.947,-3.945
15387,-16.753,-2.5198
15398,-17.071,-1.8881
15410,-16.823,-4.9263
15422,-17.679,-11.057
15434,-20.047,-10.448
15445,-18.043,-8.2742
15457,-16.185,-6.8828
15469,-16.505,-4.8769
15480,-17.665,-6.1437
15492,-17.028,-11.779
15504,-19.504,-11.61
15516,-19.682,-8.967
15527,-16.348,-3.3695
15539,-18.184,-4.7789
15551,-20.341,-10.067
15563,-17.465,-9.5796
15574,-18.331,-9.2654
15586,-18.124,-7.3989
15598,-17.962,-6.7033
15609,-21.321,-5.824
15621,-21.423,-4.1131
15633,-24.075,-5.3888
15645,-25.55,-8.1188
15656,-21.144,-8.4503
15668,-19.132,-9.3544
15680,-21.682,-5.6609
15691,-19.101,-5.9611
15703,-21.097,-10.068
15715,-17.959,-9.1115
15727,-16.668,-10.359
15738,-19.53,-8.9167
15750,-19.558,-11.828
15762,-19.213,-9.7277
15773,-21.025,-6.5556
15785,-19.301,-10.533
15797,-19.355,-9.4304
15809,-22.416,-6.5958
15820,-23.232,-5.8579
15832,-17.817,-6.5943
15844,-16.368,-8.0901
15855,-18.55,-9.3076
15867,-20.657,-6.1769
15879,-16.502,-6.5357
15891,-14.899,-7.0175
15902,-17.396,-5.0564
15914,-22.538,-7.5858
15926,-20.336,-10.394
15938,-19.038,-10.751
15949,-17.354,-8.1191
15961,-23.076,-5.3759
15973,-18.771,-4.3627
15984,-21.571,-5.737
15996,-24.646,-7.8164
16008,-18.729,-12.589
16020,-16.795,-7.0456
16031,-21.363,-5.6851
16043,-23.156,-8.8368
16055,-20.906,-9.2914
16066,-19.759,-10.055
16078,-19.292,-10.408
16090,-17.431,-6.4732
16102,-17.934,-6.5002
16113,-16.754,-8.9471
16125,-17.453,-9.477
16137,-19.654,-9.6423
16148,-20.314,-10.177
16160,-21.529,-9.2288
16172,-20.157,-5.1509
16184,-17.968,-4.1445
16195,-15.389,-7.7222
16207,-15.737,-7.7173
16219,-17.935,-9.4556
16230,-19.24,-7.2586
16242,-20.437,-8.0813
16254,-20.682,-9.1332
16266,-20.22,-10.481
16277,-22.597,-6.555
16289,-23.088,-2.5137
16301,-20.14,-4.0505
16313,-19.894,-6.7695
16324,-19.711,-6.3758
16336,-19.792,-9.9749
16348,-18.273,-9.213
16359,-17.263,-3.5253
16371,-16.585,-3.3858
16383,-18.856,-7.7496
16395,-18.411,-5.7461
16406,-18.128,-6.4115
16418,-19.259,-8.2112
16430,-19.113,-9.1253
16441,-22.398,-7.5134
16453,-22.04,-5.5484
16465,-22.533,-7.0429
16477,-25.104,-6.7713
16488,-22.161,-5.5783
16500,-20.882,-5.3964
16512,-21.009,-6.3814
16523,-20.876,-4.5557
16535,-21.249,-6.8283
16547,-19.935,-6.063
16559,-23.069,-3.7696
16570,-19.757,-4.191
16582,-19.457,-5.3911
16594,-19.596,-8.4789
16605,-19.001,-12.231
16617,-19.43,-9.8488
16629,-21.231,-11.157
16641,-22.334,-10.21
16652,-21.545,-13.391
16664,-22.523,-10.622
16676,-19.875,-7.7952
16688,-20.687,-8.7338
16699,-22.444,-8.2667
16711,-22.085,-9.2296
16723,-21.581,-8.4314
16734,-21.223,-5.5278
16746,-20.909,-6.8836
16758,-20.42,-7.0309
16770,-21.24,-7.8558
16781,-21.589,-8.8854
16793,-19.359,-10.086
16805,-19.442,-10.33
16816,-19.384,-8.2636
16828,-19.072,-8.2858
16840,-22.994,-9.5649
16852,-23.061,-10.195
16863,-20.556,-8.967
16875,-21.34,-8.8606
16887,-22.892,-10.263
16898,-21.968,-7.4839
16910,-18.958,-7.0499
16922,-18.549,-7.495
16934,-19.333,-9.1527
16945,-20.007,-8.2228
16957,-20.432,-8.291
16969,-19.536,-9.8059
16980,-18.89,-9.1448
16992,-20.519,-7.7614
17004,-24.567,-8.0742
17016,-22.996,-8.3875
17027,-21.511,-6.7736
17039,-21.855,-9.4099
17051,-22.863,-8.8589
17063,-20.247,-3.8339
17074,-19.348,-5.9388
17086,-20.055,-9.299
17098,-20.389,-8.33
17109,-20.157,-12.458
17121,-19.25,-5.9673
17133,-20.031,-8.212
17145,-18.795,-9.0184
17156,-18.02,-8.9042
17168,-20.465,-12.367
17180,-22.305,-11.778
17191,-18.132,-7.169
17203,-18.287,-4.9345
17215,-22.161,-7.2205
17227,-24.637,-9.565
17238,-22.483,-9.4841
17250,-24.752,-10.857
17262,-25.283,-7.2905
17273,-23.43,-4.7421
17285,-21.902,-7.2854
17297,-22.843,-9.0513
17309,-21.219,-5.9761
17320,-20.986,-10.282
17332,-20.485,-8.1682
17344,-23.104,-6.1354
17355,-25.159,-6.4988
17367,-21.299,-8.9472
17379,-21.764,-12.614
17391,-21.539,-10.949
17402,-18.581,-4.5549
17414,-19.872,-5.0866
17426,-22.453,-6.6256
17438,-22.158,-6.5977
17449,-16.365,-7.1947
17461,-18.299,-8.2116
17473,-21.712,-10.968
17484,-22.931,-9.8155
17496,-22.411,-12.081
17508,-20.935,-13.086
17520,-22.182,-12.498
17531,-21.873,-9.7074
17543,-20.654,-10.449
17555,-20.07,-10.788
17566,-20.234,-10.737
17578,-21.698,-10.534
17590,-19.537,-11.514
17602,-19.464,-10.997
17613,-19.392,-10.835
17625,-23.231,-9.3976
17637,-21.14,-8.347
17648,-18.712,-10.254
17660,-20.258,-9.5796
17672,-22.595,-8.4103
17684,-22.334,-7.5404
17695,-22.809,-8.0686
17707,-23.296,-9.3532
17719,-21.198,-11.573
17730,-22.202,-10.08
17742,-20.196,-9.1612
17754,-17.64,-5.7827
17766,-20.223,-4.119
17777,-22.574,-7.2904
17789,-22.049,-13.703
17801,-25.255,-11.239
17813,-24.844,-11.873
17824,-22.433,-13.33
17836,-20.55,-8.902
17848,-23.424,-11.23
17859,-26.102,-10.057
17871,-23.414,-7.1998
17883,-22.142,-5.1043
17895,-24.226,-6.0228
17906,-24.125,-8.9174
17918,-21.519,-11.321
17930,-22.422,-10.7
17941,-23.684,-6.3673
17953,-25.402,-5.9851
17965,-21.289,-8.9163
17977,-21.28,-11.49
17988,-22.31,-10.564
18000,-23.06,-9.0201
18012,-24.882,-7.8473
18023,-22.356,-4.2708
18035,-22.593,-3.7918
18047,-23.433,-7.9393
18059,-22.725,-6.985
18070,-25.592,-10.054
18082,-28.731,-13.948
18094,-26.127,-9.9397
18105,-23.993,-8.9554
18117,-23.852,-13.217
18129,-22.994,-11.218
18141,-26.71,-8.9783
18152,-26.663,-11.2
18164,-25.029,-12.03
18176,-23.55,-10.508
18188,-23.755,-8.9981
18199,-25.279,-9.392
18211,-22.567,-9.794
18223,-20.82,-4.0856
18234,-25.223,-4.6562
18246,-24.834,-6.8014
18258,-21.75,-10.818
18270,-23.697,-11.046
18281,-25.137,-13.259
18293,-25.272,-10.806
18305,-22.81,-7.7157
18316,-20.831,-7.9803
18328,-21.916,-7.596
18340,-23.783,-8.8153
18352,-24.735,-12.368
18363,-23.723,-10.807
18375,-24.836,-11.52
18387,-26.496,-10.706
18398,-22.876,-2.7156
18410,-23.132,-0.8573
18422,-25.365,-5.1251
18434,-22.724,-10.123
18445,-21.2,-6.1457
18457,-22.243,-3.815
18469,-23.775,-8.217
18480,-23.797,-11.688
18492,-24.093,-12.273
18504,-22.368,-7.8823
18516,-23.565,-4.894
18527,-23.341,-4.0781
18539,-23.137,-5.9349
18551,-24.113,-8.7426
18563,-25.407,-11.807
18574,-25.805,-7.6752
18586,-24.304,-7.6211
18598,-23.03,-11.843
18609,-23.802,-10.755
18621,-20.944,-8.4264
18633,-23.086,-9.8285
18645,-26.82,-10.342
18656,-23.22,-8.3787
18668,-23.816,-7.722
18680,-26.325,-8.7438
18691,-27.428,-8.7125
18703,-24.475,-10.156
18715,-24.957,-13.554
18727,-26.752,-11.779
18738,-23.65,-9.5156
18750,-24.422,-8.3284
18762,-24.772,-8.0595
18773,-25.426,-6.9714
18785,-23.879,-7.8157
18797,-23.572,-11.169
18809,-23.148,-11.668
18820,-24.149,-14.262
18832,-25.753,-11.801
18844,-24.125,-10.977
18855,-25.184,-12.103
18867,-22.019,-12.336
18879,-22.041,-10.594
18891,-23.257,-13.986
18902,-23.964,-12.375
18914,-24.246,-13.841
18926,-23.43,-9.4256
18938,-23.552,-7.6145
18949,-21.228,-7.9579
18961,-21.103,-6.5643
18973,-24.871,-5.0282
18984,-25.501,-4.7147
18996,-25.275,-3.8674
19008,-25.486,-2.8375
19020,-26.336,-6.3946
19031,-27.286,-14.438
19043,-26.762,-9.9001
19055,-21.937,-12.411
19066,-20.939,-14.391
19078,-24.139,-10.621
19090,-25.672,-11.72
19102,-23.259,-10.457
19113,-22.441,-6.1075
19125,-22.293,-6.5141
19137,-21.005,-9.4952
19148,-21.693,-14.328
19160,-20.672,-10.474
19172,-23.913,-11.456
19184,-23.057,-9.9368
19195,-24.645,-8.27
19207,-25.524,-7.2899
19219,-25.789,-6.7065
19230,-24.446,-10.116
19242,-24.856,-13.913
19254,-25.703,-15.261
19266,-23.08,-12.707
19277,-24.707,-9.9757
19289,-25.709,-10.92
19301,-26.308,-11.053
19313,-26.79,-8.4685
19324,-23.515,-8.356
19336,-24.164,-11.878
19348,-25.483,-14.171
19359,-24.364,-17.213
19371,-20.811,-13.719
19383,-23.53,-10.319
19395,-27.062,-13.522
19406,-25.206,-14.853
19418,-24.781,-14.397
19430,-23.934,-16.342
19441,-24.562,-11.653
19453,-24.559,-10.379
19465,-23.866,-11.027
19477,-22.72,-12.057
19488,-25.879,-13.047
19500,-27.956,-12.035
19512,-26.058,-10.271
19523,-22.725,-10.068
19535,-21.296,-9.3407
19547,-21.875,-8.4165
19559,-25.574,-7.6672
19570,-27.258,-9.1872
19582,-26.686,-13.797
19594,-26.298,-11.382
19605,-24.529,-12.267
19617,-23.435,-12.435
19629,-24.378,-11.223
19641,-23.908,-11.095
19652,-24.057,-14.536
19664,-24.75,-13.741
19676,-23.644,-11.62
19688,-24.465,-9.6097
19699,-23.907,-10.437
19711,-23.023,-9.6392
19723,-21.74,-11.586
19734,-23.386,-10.33
19746,-25.483,-13.592
19758,-23.326,-12.102
19770,-21.333,-11.354
19781,-23.43,-11.875
19793,-25.719,-12.52
19805,-25.538,-10.451
19816,-23.769,-10.009
19828,-24.011,-13.262
19840,-26.933,-12.954
19852,-24.697,-10.373
19863,-21.246,-9.1108
19875,-20.742,-9.7197
19887,-22.376,-13.508
19898,-24.798,-12.893
19910,-26.544,-11.126
19922,-25.653,-11.451
19934,-25.033,-10.971
19945,-24.954,-11.45
19957,-23.713,-12.881
19969,-25.6,-11.083
19980,-26.18,-10.671
19992,-26.417,-11.743
20004,-27.384,-11.22
20016,-22.948,-8.6175
20027,-22.797,-12.326
20039,-24.28,-13.004
20051,-23.412,-17.039
20063,-23.701,-14.081
20074,-26.993,-12.273
20086,-28.736,-9.4452
20098,-22.895,-13.138
20109,-24.078,-12.529
20121,-26.621,-13.207
20133,-25.746,-7.7882
20145,-26.522,-6.0409
20156,-27.938,-8.1422
20168,-26.403,-10.625
20180,-22.751,-10.861
20191,-24.539,-7.8255
20203,-26.208,-8.0609
20215,-25.658,-12.654
20227,-25.138,-15.466
20238,-27.419,-12.081
20250,-26.931,-10.25
20262,-25.452,-10.307
20273,-25.37,-11.686
20285,-25.811,-11.837
20297,-26.228,-8.6455
20309,-23.113,-7.2368
20320,-23.677,-6.9966
20332,-23.295,-13.974
20344,-25.653,-8.0066
20355,-27.253,-6.9439
20367,-26.573,-8.2181
20379,-25.236,-7.3226
20391,-25.439,-9.1445
20402,-25.918,-9.0945
20414,-27.611,-9.0651
20426,-29.545,-10.676
20438,-25.886,-12.63
20449,-23.579,-14.779
20461,-26.059,-15.624
20473,-29.632,-10.091
20484,-26.124,-6.9524
20496,-25.257,-10.308
20508,-23.506,-13.727
20520,-23.757,-12.845
20531,-25.968,-13.874
20543,-26.254,-14.053
20555,-24.906,-13.633
20566,-27.069,-13.371
20578,-25.454,-11.445
20590,-25.509,-6.3429
20602,-26.372,-7.3774
20613,-28.144,-11.882
20625,-27.739,-12.841
20637,-26.701,-12.738
20648,-25.539,-13.476
20660,-27.402,-12.683
20672,-25.421,-9.9587
20684,-24.67,-10.183
20695,-26.213,-16.923
20707,-26.291,-16.369
20719,-26.462,-13.161
20730,-26.885,-8.7176
20742,-27.331,-9.4146
20754,-25.888,-14.19
20766,-23.632,-18.687
20777,-22.864,-16.784
20789,-25.439,-14.635
20801,-24.391,-11.888
20813,-24.143,-12.078
20824,-25.24,-12.49
20836,-26.015,-9.8005
20848,-24.806,-11.946
20859,-24.903,-16.048
20871,-25.433,-13.13
20883,-24.443,-9.9038
20895,-22.555,-10.974
20906,-22.243,-12.867
20918,-23.979,-10.647
20930,-24.881,-11.075
20941,-26.052,-12.379
20953,-29.895,-13.584
20965,-24.932,-9.8408
20977,-22.982,-11.333
20988,-25.786,-17.738
21000,-27.013,-16.006
21012,-27.597,-14.118
21023,-27.52,-13.904
21035,-26.202,-13.208
21047,-27.468,-13.191
21059,-26.36,-13.537
21070,-26.599,-11.921
21082,-24.975,-11.617
21094,-23.753,-10.96
21105,-23.159,-13.183
21117,-23.499,-14.368
21129,-28.066,-15.22
21141,-29.413,-12.884
21152,-30.932,-12.091
21164,-28.877,-14.131
21176,-28.607,-13.444
21188,-27.184,-14.2
21199,-25.748,-10.657
21211,-27.137,-12.085
21223,-27.318,-11.801
21234,-25.028,-14.316
21246,-24.361,-13.096
21258,-25.193,-12.728
21270,-23.063,-11.324
21281,-25.143,-10.287
21293,-29.074,-11.874
21305,-27.273,-14.494
21316,-27.055,-15.267
21328,-25.683,-17.397
21340,-29.057,-15.762
21352,-27.696,-16.315
21363,-26.173,-13.302
21375,-27.077,-12.617
21387,-27.525,-9.3271
21398,-26.191,-9.4102
21410,-25.601,-10.639
21422,-24.169,-12.152
21434,-27.564,-8.1932
21445,-30.569,-8.1573
21457,-29.244,-11.98
21469,-24.957,-14.925
21480,-22.66,-15.914
21492,-25.109,-11.047
21504,-27.402,-11.357
21516,-27.538,-15.993
21527,-28.071,-15.231
21539,-28.717,-12.119
21551,-28.814,-13.055
21563,-30.278,-10.735
21574,-27.729,-10.874
21586,-27.023,-19.687
21598,-27.308,-12.421
21609,-25.171,-13.977
21621,-23.952,-13.798
21633,-25.533,-12.096
21645,-26.589,-12.123
21656,-28.534,-15.193
21668,-31.726,-13.762
21680,-29.27,-13.838
21691,-26.445,-11.657
21703,-27.813,-11.195
21715,-25.689,-14.853
21727,-26.557,-16.239
21738,-28.135,-16.466
21750,-29.645,-13.965
21762,-31.529,-12.749
21773,-28.328,-13.802
21785,-26.996,-11.735
21797,-25.03,-11.242
21809,-25.111,-14.544
21820,-25.337,-11.086
21832,-24.974,-9.7788
21844,-26.543,-12.904
21855,-26.078,-17.035
21867,-27.484,-14.581
21879,-27.413,-14.4
21891,-27.531,-14.349
21902,-26.972,-12.679
21914,-25.252,-13.859
21926,-24.133,-15.022
21938,-27.136,-15.174
21949,-30.417,-13.382
21961,-30.545,-10.576
21973,-25.919,-8.6582
21984,-28.398,-8.5975
21996,-29.541,-11.227
22008,-25.695,-11.136
22020,-25.64,-11.57
22031,-27.334,-17.935
22043,-27.847,-15.645
22055,-27.577,-11.657
22066,-26.355,-14.216
22078,-26.762,-13.507
22090,-25.841,-12.192
22102,-22.881,-11.781
22113,-25.618,-11.617
22125,-26.176,-12.423
22137,-28.235,-15.12
22148,-27.148,-12.432
22160,-27.102,-11.553
22172,-25.054,-13.498
22184,-25.974,-14.874
22195,-25.722,-13.654
22207,-28.161,-12.386
22219,-30.039,-12.602
22230,-27.384,-14.943
22242,-28.493,-16.974
22254,-30.223,-13.893
22266,-27.998,-11.677
22277,-25.606,-16.015
22289,-28.8,-14.361
22301,-28.395,-15.062
22313,-26.174,-11.376
22324,-25.165,-9.2133
22336,-24.905,-11.593
22348,-26.654,-14.419
22359,-27.621,-12.904
22371,-25.998,-15.668
22383,-25.662,-16.88
22395,-25.598,-11.736
22406,-27.279,-10.055
22418,-28.897,-10.216
22430,-29.423,-15.624
22441,-29.803,-12.878
22453,-27.695,-13.401
22465,-25.279,-15.4
22477,-27.203,-16.353
22488,-27.497,-16.389
22500,-27.433,-16.857
22512,-29.43,-16.148
22523,-28.147,-14.773
22535,-23.401,-12.509
22547,-23.608,-14.043
22559,-27.571,-10.325
22570,-25.838,-7.0914
22582,-24.693,-8.3645
22594,-28.391,-11.848
22605,-29.101,-12.158
22617,-27.786,-12.669
22629,-25.608,-10.823
22641,-26.422,-10.69
22652,-26.473,-13.081
22664,-25.224,-14.308
22676,-26.031,-15.92
22688,-26.211,-14.88
22699,-28.472,-11.22
22711,-31.314,-10.457
22723,-27.377,-10.073
22734,-27.449,-10.177
22746,-26.008,-12.002
22758,-26.585,-13.017
22770,-27.776,-12.64
22781,-24.763,-14.567
22793,-24.894,-13.133
22805,-25.805,-13.607
22816,-25.128,-11.811
22828,-25.386,-9.9645
22840,-28.491,-7.9776
22852,-28.613,-8.3253
22863,-29.425,-11.69
22875,-27.573,-9.1482
22887,-26.642,-10.026
22898,-25.306,-12.964
22910,-28.148,-11.33
22922,-31.022,-14.69
22934,-29.283,-14.88
22945,-27.572,-16.112
22957,-27.476,-12.85
22969,-23.767,-13.9
22980,-24.096,-12.359
22992,-26.807,-11.889
23004,-28.425,-18.055
23016,-31.192,-15.793
23027,-32.315,-14.058
23039,-29.921,-15.19
23051,-29.674,-15.134
23063,-30.923,-15.305
23074,-31.752,-14.905
23086,-26.642,-14.776
23098,-26.575,-13.534
23109,-27.092,-14.915
23121,-29.006,-16.328
23133,-28.409,-13.705
23145,-25.21,-11.362
23156,-24.726,-11.37
23168,-28.255,-12.084
23180,-25.935,-14.972
23191,-26.908,-12.383
23203,-29.594,-16.669
23215,-27.569,-12.829
23227,-29.915,-9.6848
23238,-29.017,-9.5832
23250,-29.734,-10.015
23262,-28.82,-11.598
23273,-33.236,-13.515
23285,-29.018,-12.87
23297,-29.637,-13.053
23309,-28.668,-14.729
23320,-30.014,-13.249
23332,-33.113,-16.164
23344,-29.101,-15.183
23355,-28.541,-14.599
23367,-28.388,-15.69
23379,-27.132,-17.965
23391,-26.109,-13.044
23402,-25.984,-8.3296
23414,-24.609,-8.4032
23426,-24.126,-14.303
23438,-25.912,-10.843
23449,-28.995,-9.208
23461,-28.701,-11.628
23473,-28.103,-16.156
23484,-29.254,-16.026
23496,-31.713,-13.463
23508,-29.484,-14.806
23520,-28.001,-17.426
23531,-29.19,-16.245
23543,-29.704,-17.313
23555,-29.058,-17.234
23566,-29.336,-14.801
23578,-30.249,-14.804
23590,-27.085,-17.777
23602,-26.317,-18.173
23613,-26.461,-13.767
23625,-29.647,-13.133
23637,-31.169,-10.715
23648,-29.871,-11.441
23660,-28.496,-14.132
23672,-28.422,-14.727
23684,-31.809,-16.624
23695,-30.07,-16.026
23707,-25.25,-15.626
23719,-25.982,-15.25
23730,-25.64,-18.568
23742,-30.2,-14.395
23754,-28.947,-13.6
23766,-27.287,-17.164
23777,-30.517,-11.766
23789,-29.816,-11.522
23801,-29.2,-14.7
23813,-28.23,-17.031
23824,-26.36,-15.073
23836,-27.314,-14.277
23848,-28.068,-14.491
23859,-26.435,-15.414
23871,-29.947,-15.557
23883,-29.621,-13.968
23895,-28.65,-12.409
23906,-30.436,-14.906
23918,-28.416,-13.53
23930,-27.513,-12.148
23941,-28.517,-16.455
23953,-27.887,-20.434
23965,-29.122,-19.297
23977,-26.389,-13.831
23988,-25.937,-12.727
