FFT,Power Spectrum
Frequency[Hz],Level-L[dB],Level-R[dB]
11.719,-21.919,-23.109
23.438,-1.158,-3.0616
35.156,1.1238,1.0165
46.875,2.4347,2.1489
58.594,2.273,4.6666
70.313,7.4426,7.049
82.031,6.5123,5.8408
93.75,7.5948,10.014
105.47,6.7758,11.465
117.19,10.045,11.998
128.91,14.179,11.509
140.63,14.375,12.455
152.34,8.0083,10.821
164.06,-0.26492,9.2826
175.78,4.0048,11.632
187.5,10.083,12.182
199.22,12.164,12.798
210.94,8.4477,14.013
222.66,5.085,16.786
234.38,8.9458,14.477
246.09,10.674,11.779
257.81,11.484,13.166
269.53,8.5103,14.192
281.25,9.8689,14.729
292.97,10.892,13.913
304.69,7.2729,14.903
316.41,7.1185,13.624
328.13,8.0243,13.827
339.84,5.8797,15.725
351.56,1.014,16.902
363.28,2.3209,14.498
375,4.8113,18.107
386.72,1.7927,15.002
398.44,3.7137,16.077
410.16,5.8733,17.625
421.88,7.4955,19.015
433.59,7.1578,19.668
445.31,4.7211,16.354
457.03,6.9139,18.115
468.75,4.4487,18.868
480.47,4.6172,18.986
492.19,4.1908,16.582
503.91,5.1255,17.607
515.63,5.8819,17.985
527.34,4.767,19.359
539.06,6.6349,18.505
550.78,6.1943,16.938
562.5,4.8328,13.296
574.22,8.226,18.137
585.94,7.8313,20.109
597.66,5.2347,18.579
609.38,7.0766,17.195
621.09,6.7269,15.194
632.81,4.1272,13.24
644.53,4.0958,15.502
656.25,7.1474,17.918
667.97,6.008,18.861
679.69,3.3067,16.932
691.41,3.2366,12.078
703.13,6.1226,11.52
714.84,4.959,14.445
726.56,2.7538,15.418
738.28,2.5822,15.364
750,7.6266,12.981
761.72,6.5757,13.286
773.44,4.9726,12.581
785.16,6.924,15.923
796.88,7.2082,17.878
808.59,5.8359,19.067
820.31,3.3098,16.488
832.03,2.4459,13.548
843.75,2.6593,17.101
855.47,2.6143,19.021
867.19,3.9092,16.517
878.91,4.3486,14.669
890.63,6.1934,14.632
902.34,6.9616,15.228
914.06,4.1409,12.995
925.78,4.2644,13.238
937.5,6.9779,16.045
949.22,6.6089,20.034
960.94,5.8552,19.83
972.66,6.52,17.392
984.38,8.5701,12.467
996.09,6.5705,14.411
1007.8,5.843,14.933
1019.5,5.4878,15.414
1031.3,5.7215,14.579
1043,6.1383,17.901
1054.7,6.7572,15.766
1066.4,6.8934,13.782
1078.1,4.5202,14.31
1089.8,2.5066,14.588
1101.6,4.5784,13.204
1113.3,4.9313,13.133
1125,3.4992,15.611
1136.7,4.2375,17.628
1148.4,3.9851,16.586
1160.2,6.1074,11.812
1171.9,5.5116,12.772
1183.6,4.1769,15.424
1195.3,2.1337,12.404
1207,4.4761,11.159
1218.8,6.0074,15.291
1230.5,7.3048,17.025
1242.2,5.7546,15.576
1253.9,1.4214,15.771
1265.6,4.5159,16.517
1277.3,6.3254,16.567
1289.1,3.1446,16.163
1300.8,4.4177,12.892
1312.5,2.3418,12.955
1324.2,3.9731,14.793
1335.9,2.0944,15.191
1347.7,0.90553,13.888
1359.4,4.6634,11.042
1371.1,4.5677,14.035
1382.8,4.3056,15.439
1394.5,6.2833,13.77
1406.3,9.1042,16.113
1418,6.6587,17.246
1429.7,5.3888,14.84
1441.4,5.7865,14.389
1453.1,5.4988,16.31
1464.8,3.397,13.217
1476.6,3.4977,11.502
1488.3,3.0751,13.298
1500,5.5381,12.694
1511.7,5.7635,11.597
1523.4,4.1911,11.918
1535.2,0.10663,14.009
1546.9,2.6622,13.532
1558.6,2.781,14.151
1570.3,1.6651,12.68
1582,5.3669,13.096
1593.8,4.2502,13.821
1605.5,2.0925,12.735
1617.2,2.5719,12.49
1628.9,4.6544,10.471
1640.6,5.3261,13.134
1652.3,7.0107,14.012
1664.1,6.4443,8.5705
1675.8,5.5181,11.736
1687.5,3.1668,15.142
1699.2,4.7721,13.449
1710.9,5.0223,14.325
1722.7,4.2402,17.53
1734.4,4.7854,17.299
1746.1,3.1149,16.927
1757.8,4.7545,16.202
1769.5,1.5955,16.547
1781.3,4.9935,14.912
1793,5.8096,12.25
1804.7,6.2608,10.119
1816.4,5.4838,13.007
1828.1,5.0524,15.222
1839.8,3.4696,14.844
1851.6,2.5465,12.297
1863.3,2.0571,13.426
1875,0.16522,13.912
1886.7,2.4704,14.925
1898.4,3.2508,12.18
1910.2,3.6437,13.304
1921.9,5.3762,15.69
1933.6,5.2561,15.091
1945.3,0.86148,14.06
1957,-1.4873,12.173
1968.8,0.69401,12.04
1980.5,1.3191,13.206
1992.2,1.4731,12.158
2003.9,1.466,13.944
2015.6,3.6089,13.753
2027.3,2.4543,12.425
2039.1,1.4758,13.031
2050.8,-0.9242,13.774
2062.5,-0.45644,14.026
2074.2,0.44187,11.132
2085.9,0.94886,10.121
2097.7,2.7907,13.685
2109.4,3.6016,12.298
2121.1,1.4737,12.679
2132.8,3.4122,15.961
2144.5,4.2568,17.397
2156.3,1.3921,16.165
2168,0.62985,13.139
2179.7,-1.5662,7.6248
2191.4,-1.9663,11.437
2203.1,0.81762,12.242
2214.8,1.5318,15.007
2226.6,0.88131,15.806
2238.3,0.90822,14.885
2250,1.8559,12.177
2261.7,2.7362,8.5783
2273.4,2.1783,10.273
2285.2,-1.6197,13.443
2296.9,-0.29276,11.487
2308.6,1.7813,10.905
2320.3,3.9892,12.219
2332,2.2291,12.265
2343.8,3.1021,11.816
2355.5,4.4204,12.776
2367.2,3.2388,13.799
2378.9,-0.093658,11.016
2390.6,-2.9441,8.1661
2402.3,0.65441,10.257
2414.1,0.028333,12.246
2425.8,2.4138,9.5203
2437.5,5.2072,10.994
2449.2,1.4522,12.287
2460.9,1.2061,10.799
2472.7,-0.58451,13.405
2484.4,-0.3526,14.607
2496.1,-0.51285,13.633
2507.8,0.65702,12.138
2519.5,3.7899,11.368
2531.3,4.0997,10.68
2543,1.5968,9.2468
2554.7,-0.79192,11.017
2566.4,-1.5649,12.575
2578.1,-0.33731,13.201
2589.8,-0.55409,10.981
2601.6,-0.80282,13.277
2613.3,-0.2377,12.807
2625,2.104,11.195
2636.7,-1.3092,12.995
2648.4,-5.7507,12.489
2660.2,-2.9249,12.976
2671.9,-1.5302,11.849
2683.6,2.527,11.41
2695.3,2.1356,13.229
2707,0.4415,12.511
2718.8,-1.2775,13.082
2730.5,-0.06581,12.92
2742.2,-0.52508,13.693
2753.9,1.8585,10.865
2765.6,1.7534,9.0123
2777.3,1.7358,11.45
2789.1,-0.3563,13.675
2800.8,3.1312,13.729
2812.5,-1.2263,10.652
2824.2,-2.2096,12.445
2835.9,-0.46365,14.706
2847.7,-0.010176,12.779
2859.4,1.0083,11.26
2871.1,-0.14732,11.303
2882.8,-0.12044,10.814
2894.5,-1.3327,12.856
2906.3,-0.32879,12.088
2918,-1.0944,9.5863
2929.7,1.7319,9.7932
2941.4,-2.7017,11.395
2953.1,0.24185,8.5773
2964.8,1.4933,13.64
2976.6,1.0939,13.515
2988.3,-0.25748,11.336
3000,0.94032,13.072
3011.7,2.1361,11.703
3023.4,0.39796,10.268
3035.2,-4.4257,13.172
3046.9,-0.95024,14.558
3058.6,1.1681,11.583
3070.3,0.19884,9.98
3082,-2.1281,12.151
3093.8,-0.63071,11.853
3105.5,1.2798,10.329
3117.2,0.23305,6.756
3128.9,-3.3572,8.7764
3140.6,-1.4312,12.025
3152.3,-4.1209,13.94
3164.1,-0.18747,13.854
3175.8,-0.27446,12.399
3187.5,1.0177,8.7224
3199.2,-0.70241,11.647
3210.9,-1.7832,11.092
3222.7,0.43093,9.268
3234.4,-0.22997,9.324
3246.1,0.67358,9.9103
3257.8,1.42,10.635
3269.5,-2.5009,9.7255
3281.3,0.71866,6.7841
3293,-2.2072,11.88
3304.7,-0.66551,12.573
3316.4,-0.043338,10.44
3328.1,-1.4751,10.725
3339.8,-0.76669,8.0862
3351.6,-0.33567,9.6146
3363.3,-1.9571,7.1588
3375,-2.6696,8.0428
3386.7,-0.36768,9.6419
3398.4,-2.0244,10.832
3410.2,-4.9086,10.083
3421.9,-0.71904,10.55
3433.6,-2.5784,11.381
3445.3,-4.4711,9.3856
3457,-1.866,7.5178
3468.8,1.9695,8.0524
3480.5,1.4061,10.342
3492.2,-1.4114,9.3758
3503.9,-2.2288,6.692
3515.6,-1.1033,9.0753
3527.3,-3.1495,8.7818
3539.1,-3.49,7.967
3550.8,-3.1749,6.324
3562.5,-1.3461,9.7821
3574.2,-0.89449,9.1693
3585.9,-0.70371,10.749
3597.7,0.24474,12.143
3609.4,-1.1143,10.555
3621.1,-2.4956,12.168
3632.8,-3.9581,11.118
3644.5,-3.4311,10.33
3656.3,-2.6578,9.766
3668,-1.7262,9.0357
3679.7,-1.8734,9.3559
3691.4,-0.24577,11.411
3703.1,-1.3098,9.7313
3714.8,-0.65205,9.7492
3726.6,-2.6962,13.709
3738.3,0.52606,10.626
3750,-2.2265,9.9288
3761.7,-1.9595,8.2494
3773.4,-0.69342,7.1957
3785.2,-1.2891,10.418
3796.9,-2.0658,9.3492
3808.6,-4.4059,8.9189
3820.3,0.016814,10.376
3832,-0.54603,9.6523
3843.8,-1.3475,6.6099
3855.5,-0.30135,5.5855
3867.2,-2.064,4.9732
3878.9,-2.6213,7.2406
3890.6,-4.9577,8.4556
3902.3,-2.5679,8.9142
3914.1,-0.93867,10.037
3925.8,-1.1291,10.918
3937.5,-1.9925,11.655
3949.2,-0.23826,8.7166
3960.9,-0.80045,9.2199
3972.7,-0.61606,7.6927
3984.4,-3.3,9.8066
3996.1,-5.4471,12.803
4007.8,-4.8076,11.178
4019.5,0.25855,7.5959
4031.3,1.2161,7.9709
4043,0.05392,8.7956
4054.7,-2.3889,9.2252
4066.4,-2.5045,9.1115
4078.1,-3.4061,6.6543
4089.8,-3.3558,8.7398
4101.6,-2.3598,6.7099
4113.3,-4.1548,8.3339
4125,-4.8241,9.7283
4136.7,-3.4561,8.3087
4148.4,-1.1969,8.1516
4160.2,-1.7186,8.1007
4171.9,-1.7864,9.4874
4183.6,-2.503,11.095
4195.3,-3.6616,9.3403
4207,-3.759,6.7998
4218.8,-3.6776,7.8314
4230.5,-3.4364,6.7187
4242.2,-0.40676,6.3113
4253.9,-3.7163,7.3685
4265.6,-2.4257,8.8752
4277.3,-3.1837,5.9473
4289.1,-3.6967,7.8803
4300.8,-1.892,9.1281
4312.5,-1.189,9.7387
4324.2,-1.9507,9.1629
4335.9,-2.2197,9.6728
4347.7,-4.7799,10.265
4359.4,-9.9045,8.8528
4371.1,-4.3157,7.4827
4382.8,-0.56591,8.7421
4394.5,-0.54729,10.617
4406.3,-0.7059,8.4114
4418,-2.7503,6.4631
4429.7,-4.9653,9.2047
4441.4,-3.4907,6.2438
4453.1,-2.0062,4.8356
4464.8,-2.5847,6.6063
4476.6,-3.3295,8.5679
4488.3,-2.0788,10.534
4500,-1.8317,6.4615
4511.7,-1.5337,9.6221
4523.4,-2.8648,9.4334
4535.2,-3.0939,7.3959
4546.9,-5.3238,6.9398
4558.6,-3.2508,6.0683
4570.3,-5.2769,4.6354
4582,-3.7666,5.3526
4593.8,-3.8853,6.32
4605.5,-4.4124,8.4021
4617.2,-3.4387,9.6907
4628.9,-2.1942,8.1243
4640.6,-2.6403,8.3644
4652.3,-1.4071,7.6909
4664.1,-2.8282,7.1678
4675.8,-8.6969,9.7466
4687.5,-5.1306,9.936
4699.2,-6.2764,6.8786
4710.9,-4.3519,4.1297
4722.7,-4.7844,5.4436
4734.4,-5.7562,7.7168
4746.1,-4.9565,8.2351
4757.8,-4.7721,5.6969
4769.5,-3.0277,5.966
4781.3,-3.3844,5.0139
4793,-3.1273,5.5225
4804.7,-2.8951,6.9856
4816.4,-4.2775,7.9108
4828.1,-2.9939,8.6329
4839.8,-0.82694,7.4057
4851.6,-0.60919,9.5283
4863.3,-0.60635,7.7653
4875,-1.26,7.1121
4886.7,-4.3222,6.2575
4898.4,-4.5651,8.4509
4910.2,-4.2722,8.3263
4921.9,-1.1357,7.1171
4933.6,-1.9303,5.9557
4945.3,-2.3748,5.5007
4957,-2.4336,8.0932
4968.8,-2.6657,10.623
4980.5,-2.8056,12.147
4992.2,-3.2342,10.446
5003.9,-3.1694,1.1878
5015.6,-5.2419,6.6108
5027.3,-4.2981,6.6465
5039.1,-3.851,9.3799
5050.8,-3.8954,8.3697
5062.5,-3.9753,8.563
5074.2,-2.7476,7.7504
5085.9,-2.4334,7.3858
5097.7,-4.1528,8.3876
5109.4,-3.5833,7.0934
5121.1,-6.8925,4.5538
5132.8,-7.1187,7.2197
5144.5,-6.2941,7.1364
5156.3,-3.5389,3.7311
5168,-1.9688,4.5064
5179.7,-0.86141,4.7136
5191.4,-1.1099,3.8414
5203.1,-2.1163,4.2215
5214.8,-3.9589,6.3045
5226.6,-4.8091,7.775
5238.3,-5.4388,6.7952
5250,-3.2415,6.7105
5261.7,-3.5509,7.2472
5273.4,-4.9106,4.5602
5285.2,-3.6497,4.9734
5296.9,-3.6493,5.6669
5308.6,-4.4431,4.1861
5320.3,-6.0057,2.6677
5332,-3.6077,4.5112
5343.8,-1.9906,6.81
5355.5,-3.9585,8.341
5367.2,-6.4971,5.7005
5378.9,-5.7877,6.4079
5390.6,-5.8551,5.3805
5402.3,-1.1957,3.5994
5414.1,-1.5819,4.9089
5425.8,-3.8604,5.7231
5437.5,-2.8485,6.2332
5449.2,-6.4269,6.8033
5460.9,-7.2953,5.9428
5472.7,-5.1761,4.1403
5484.4,-4.072,5.4448
5496.1,-3.2535,7.1917
5507.8,-2.0082,8.5457
5519.5,-3.9165,9.0831
5531.3,-5.4432,5.5844
5543,-5.7351,7.4121
5554.7,-5.6947,6.3906
5566.4,-5.8849,5.4051
5578.1,-3.8422,5.4159
5589.8,-3.5334,5.721
5601.6,-4.5907,5.1653
5613.3,-5.8918,6.4355
5625,-4.4757,7.2389
5636.7,-3.1141,9.4323
5648.4,-5.6577,7.324
5660.2,-8.6635,3.2987
5671.9,-6.196,0.32527
5683.6,-4.1121,4.2329
5695.3,-3.3864,7.7392
5707,-3.6299,7.4692
5718.8,-4.0593,6.422
5730.5,-2.9131,6.2486
5742.2,-5.0284,6.5669
5753.9,-4.5516,7.5134
5765.6,-3.9482,7.6224
5777.3,-5.3211,8.0437
5789.1,-5.1994,5.3067
5800.8,-4.9955,4.6684
5812.5,-5.6254,6.4985
5824.2,-1.7081,6.5868
5835.9,-2.1858,3.1763
5847.7,-5.2718,3.61
5859.4,-5.5842,5.5166
5871.1,-5.805,6.0257
5882.8,-5.6624,5.9495
5894.5,-5.2175,6.7949
5906.3,-6.4512,6.7542
5918,-5.6413,3.6379
5929.7,-3.0838,4.2937
5941.4,-3.0243,4.6076
5953.1,-5.9055,3.3354
5964.8,-4.466,4.4511
5976.6,-4.8185,5.4169
5988.3,-4.4843,5.0799
6000,-4.0356,5.8126
6011.7,-4.3959,4.5627
6023.4,-5.7928,6.8052
6035.2,-6.05,6.9612
6046.9,-5.9291,6.8674
6058.6,-4.0765,4.7403
6070.3,-3.6475,4.3046
6082,-5.6389,5.3573
6093.8,-7.4696,4.8446
6105.5,-7.364,4.6578
6117.2,-6.5205,2.6761
6128.9,-5.2756,2.0802
6140.6,-7.0213,1.9234
6152.3,-7.7604,3.5812
6164.1,-7.0812,4.8095
6175.8,-9.1399,7.0148
6187.5,-4.6001,4.1684
6199.2,-5.7462,2.7466
6210.9,-9.0283,4.434
6222.7,-6.1842,6.8851
6234.4,-3.8918,7.0284
6246.1,-4.3183,6.7825
6257.8,-5.8582,8.5931
6269.5,-5.7835,7.5856
6281.3,-6.585,4.5523
6293,-4.654,4.6634
6304.7,-2.631,5.421
6316.4,-7.2276,3.8366
6328.1,-7.4518,5.7073
6339.8,-3.7094,3.4745
6351.6,-6.9276,2.4363
6363.3,-8.0991,3.5191
6375,-9.6083,7.0342
6386.7,-4.7802,6.9921
6398.4,-3.9504,5.0107
6410.2,-5.1253,5.0399
6421.9,-7.7874,5.2647
6433.6,-7.0651,6.1684
6445.3,-6.3204,8.4134
6457,-4.9604,7.4543
6468.8,-5.0601,5.8561
6480.5,-5.944,7.7925
6492.2,-8.1306,6.6637
6503.9,-6.1644,3.7396
6515.6,-6.405,1.1629
6527.3,-9.2744,3.3883
6539.1,-7.1878,2.6661
6550.8,-6.134,1.7919
6562.5,-5.9613,3.6609
6574.2,-7.3063,4.1754
6585.9,-6.9486,1.3656
6597.7,-7.8658,2.4398
6609.4,-8.0445,5.0246
6621.1,-7.7824,5.176
6632.8,-7.9598,5.9516
6644.5,-4.3358,4.3025
6656.3,-3.4546,2.201
6668,-4.7843,2.8879
6679.7,-6.8203,5.7632
6691.4,-3.8932,5.0479
6703.1,-3.2264,1.7963
6714.8,-4.0096,3.1401
6726.6,-5.5825,5.8133
6738.3,-6.5362,3.4257
6750,-4.4819,3.9354
6761.7,-3.6428,5.232
6773.4,-4.2537,4.8342
6785.2,-5.7357,3.7794
6796.9,-6.4688,1.9645
6808.6,-9.5621,2.6719
6820.3,-5.3807,3.8696
6832,-3.2062,5.0707
6843.8,-4.6444,2.8549
6855.5,-3.2683,4.4336
6867.2,-2.9139,5.5015
6878.9,-2.0105,4.696
6890.6,-3.324,2.3601
6902.3,-5.6496,2.4838
6914.1,-6.6539,2.9926
6925.8,-7.3602,4.3975
6937.5,-5.5254,4.4262
6949.2,-3.179,2.4081
6960.9,-3.0794,1.9658
6972.7,-1.1821,3.1646
6984.4,-4.0587,5.5329
6996.1,-4.9076,5.5201
7007.8,-6.2118,6.1012
7019.5,-5.4863,9.1975
7031.3,-4.4889,6.9852
7043,0.78277,1.185
7054.7,3.1984,2.2451
7066.4,0.42318,5.8801
7078.1,-4.1322,5.5456
7089.8,-1.3853,1.4498
7101.6,-2.9483,1.2816
7113.3,-7.3035,4.1256
7125,-1.2333,4.0029
7136.7,0.78947,3.3601
7148.4,-0.95124,3.9292
7160.2,-1.2112,3.3421
7171.9,1.2954,3.133
7183.6,0.99669,5.0728
7195.3,-1.0771,4.4173
7207,2.1082,5.979
7218.8,3.214,4.0069
7230.5,1.0623,2.8596
7242.2,-1.444,2.5671
7253.9,1.365,4.1403
7265.6,4.0895,4.0019
7277.3,-0.090594,2.7047
7289.1,2.0067,-0.41801
7300.8,3.8501,3.9021
7312.5,4.3999,4.0277
7324.2,6.0758,4.3041
7335.9,5.7719,5.0067
7347.7,9.449,3.6895
7359.4,12.444,1.161
7371.1,10.783,0.34087
7382.8,10.759,3.4836
7394.5,10.648,3.8377
7406.3,13.786,0.34391
7418,16.235,0.95091
7429.7,17.015,2.179
7441.4,17.129,4.1229
7453.1,17.764,3.5442
7464.8,21.213,3.4388
7476.6,29.113,4.9381
7488.3,29.829,4.7641
7500,41.126,15.003
7511.7,62.308,34.995
7523.4,66.011,38.691
7535.2,57.653,30.387
7546.9,36.263,10.092
7558.6,28.347,1.7676
7570.3,26.751,3.1443
7582,19.463,1.6174
7593.8,16.685,0.91633
7605.5,16.404,-2.4009
7617.2,15.867,0.57109
7628.9,13.942,3.4449
7640.6,11.677,2.8856
7652.3,9.1893,3.2534
7664.1,10.227,2.6653
7675.8,10.379,0.57387
7687.5,10.823,1.6074
7699.2,5.2671,2.7546
7710.9,3.5086,0.81652
7722.7,2.6758,0.1057
7734.4,2.0049,0.33468
7746.1,1.1277,0.67535
7757.8,-0.3138,3.0577
7769.5,0.50826,2.5658
7781.3,0.63454,-1.4329
7793,-0.09089,-2.8326
7804.7,-0.92711,-0.33221
7816.4,0.79552,2.2743
7828.1,-0.045827,3.6853
7839.8,-3.9119,2.1446
7851.6,-4.0418,-0.80469
7863.3,-0.95189,3.4316
7875,-0.99195,4.7673
7886.7,-2.4424,3.9367
7898.4,0.0052194,4.271
7910.2,-1.9882,5.8116
7921.9,-2.4869,3.8154
7933.6,-3.0411,1.5343
7945.3,0.3503,1.055
7957,-3.2318,2.7721
7968.8,-8.494,2.3796
7980.5,-4.0017,1.37
7992.2,-3.8064,1.881
8003.9,-4.7099,1.0966
8015.6,-8.0498,0.28391
8027.3,-6.4488,4.3201
8039.1,-5.8765,4.5446
8050.8,-7.9521,3.0967
8062.5,-6.7295,3.2278
8074.2,-4.7722,1.5984
8085.9,-5.3205,4.1678
8097.7,-6.0254,5.2594
8109.4,-5.4732,4.4164
8121.1,-7.1034,3.7536
8132.8,-5.0906,0.9717
8144.5,-5.3005,0.41638
8156.3,-8.5251,2.7394
8168,-7.1189,4.9691
8179.7,-5.6042,3.0463
8191.4,-7.5243,-1.6227
8203.1,-7.7435,-0.40902
8214.8,-8.1297,1.5223
8226.6,-7.9806,5.9079
8238.3,-9.3886,4.6853
8250,-7.2901,2.4193
8261.7,-8.134,2.793
8273.4,-9.8342,4.4093
8285.2,-7.8017,2.853
8296.9,-7.5304,2.5924
8308.6,-10.647,1.1357
8320.3,-10.02,1.899
8332,-7.7695,3.5107
8343.8,-8.9565,3.3902
8355.5,-9.8637,1.7449
8367.2,-5.2102,1.4409
8378.9,-6.1437,0.66981
8390.6,-9.6442,0.69001
8402.3,-9.3063,1.4088
8414.1,-7.9358,2.7838
8425.8,-6.4925,1.5921
8437.5,-8.0003,4.5593
8449.2,-10.512,2.0411
8460.9,-8.7378,0.97487
8472.7,-5.7643,2.3722
8484.4,-7.5024,-1.9466
8496.1,-10.439,0.43184
8507.8,-7.6677,4.3546
8519.5,-8.4978,2.4876
8531.3,-12.027,1.8764
8543,-8.7806,-0.6471
8554.7,-10.099,0.25204
8566.4,-9.8125,0.52964
8578.1,-9.5298,2.8795
8589.8,-11.862,1.5544
8601.6,-9.9693,1.4319
8613.3,-8.2974,1.5323
8625,-7.2461,1.6265
8636.7,-9.9538,2.5225
8648.4,-12.826,3.1218
8660.2,-11.214,2.8926
8671.9,-8.5043,1.3394
8683.6,-8.9189,0.49514
8695.3,-9.3751,1.0688
8707,-9.5279,1.6373
8718.8,-9.0916,1.8087
8730.5,-9.381,2.5323
8742.2,-10.802,2.2846
8753.9,-9.9099,-0.79706
8765.6,-10.628,0.86032
8777.3,-11.307,0.64753
8789.1,-11.051,-1.6887
8800.8,-10.536,1.3601
8812.5,-10.84,0.94004
8824.2,-10.007,1.495
8835.9,-9.6407,-0.43597
8847.7,-9.1419,-1.0151
8859.4,-8.4226,1.7481
8871.1,-8.9311,0.51275
8882.8,-8.9668,0.47514
8894.5,-8.4314,2.4184
8906.3,-10.948,1.0545
8918,-10.007,2.1741
8929.7,-11.219,-1.3655
8941.4,-12.507,0.48532
8953.1,-13.117,1.6046
8964.8,-12.257,1.0651
8976.6,-11.799,1.7314
8988.3,-12.554,1.6175
9000,-9.8413,1.2906
9011.7,-11.913,0.11156
9023.4,-12.558,-0.72479
9035.2,-9.886,-0.24015
9046.9,-9.5851,1.2186
9058.6,-11.401,-0.18882
9070.3,-13.768,3.2636
9082,-9.4437,2.4496
9093.8,-8.4645,-0.098468
9105.5,-8.241,-0.32001
9117.2,-8.2004,1.8752
9128.9,-9.5964,1.9562
9140.6,-9.5886,4.0298
9152.3,-8.8058,2.0366
9164.1,-7.5469,0.21056
9175.8,-8.5284,3.8182
9187.5,-10.229,2.188
9199.2,-10.154,-0.77071
9210.9,-8.7564,1.133
9222.7,-10.36,3.4614
9234.4,-11.297,2.7771
9246.1,-11.769,1.2766
9257.8,-11.717,3.8805
9269.5,-8.9368,2.0538
9281.3,-7.4089,0.33529
9293,-9.1448,0.04839
9304.7,-8.6664,0.39685
9316.4,-7.1767,0.32538
9328.1,-9.1168,1.0985
9339.8,-13.218,-0.354
9351.6,-13.305,-1.7797
9363.3,-12.226,1.3185
9375,-12.786,3.413
9386.7,-11.642,1.2271
9398.4,-13.108,-3.2658
9410.2,-12.728,-1.0648
9421.9,-10.573,1.4856
9433.6,-9.9583,0.82437
9445.3,-13.542,0.61447
9457,-13.695,0.99672
9468.8,-12.98,1.4856
9480.5,-10.164,0.74668
9492.2,-10.831,-0.63024
9503.9,-9.7841,1.1554
9515.6,-10.328,1.9221
9527.3,-16.272,0.56913
9539.1,-14.442,-0.39958
9550.8,-11.202,-0.56089
9562.5,-10.246,2.2434
9574.2,-8.787,-0.14385
9585.9,-8.0508,1.5146
9597.7,-10.528,2.2725
9609.4,-11.208,1.0578
9621.1,-10.655,3.2567
9632.8,-11.966,3.4579
9644.5,-10.336,3.0355
9656.3,-8.4088,2.4351
9668,-9.0278,1.3766
9679.7,-12.059,1.0594
9691.4,-12.865,-1.0327
9703.1,-10.085,1.388
9714.8,-10.715,-0.28029
9726.6,-11.429,-2.5305
9738.3,-10.038,-2.5438
9750,-9.6401,-2.2761
9761.7,-9.9207,-1.4402
9773.4,-8.9159,-0.33778
9785.2,-12.236,0.85257
9796.9,-12.908,2.5774
9808.6,-12.719,0.32853
9820.3,-12.142,-3.3794
9832,-12.849,-1.457
9843.8,-10.333,0.53788
9855.5,-7.1111,-1.4635
9867.2,-9.6442,-0.22649
9878.9,-13.358,-2.4413
9890.6,-15.251,2.5361
9902.3,-10.324,1.1976
9914.1,-9.0736,-2.8101
9925.8,-6.9941,-0.019457
9937.5,-7.3691,0.90808
9949.2,-8.9909,0.89379
9960.9,-10.607,1.2938
9972.7,-10.013,1.6207
9984.4,-9.6348,0.64428
9996.1,-12.413,-0.24226
10008,-11.834,0.32329
10020,-12.345,0.54233
10031,-13.912,-4.9579
10043,-13.691,-1.875
10055,-14.08,-1.0356
10066,-13.017,-0.81111
10078,-11.262,-1.184
10090,-12.304,-1.4754
10102,-9.68,1.9164
10113,-10.633,1.3904
10125,-9.9426,1.1528
10137,-11.183,-0.30666
10148,-12.254,-1.6066
10160,-11.869,-3.0302
10172,-11.666,-0.66512
10184,-13.953,-1.0492
10195,-14.807,-1.9398
10207,-12.822,-2.245
10219,-12.518,-3.5817
10230,-14.845,-2.1233
10242,-13.395,-1.2838
10254,-13.019,-2.9411
10266,-14.573,-1.4903
10277,-14.413,-0.63303
10289,-13.484,-0.36363
10301,-14.079,-0.36329
10313,-12.093,-1.9415
10324,-12.171,1.397
10336,-12.597,-2.1248
10348,-9.8507,-1.9306
10359,-9.7551,-3.4605
10371,-10.644,-2.2141
10383,-10.702,-3.7253
10395,-11.703,0.12617
10406,-10.79,-0.022008
10418,-9.5495,1.0273
10430,-9.9564,1.1809
10441,-13.007,-1.1202
10453,-13.268,0.66113
10465,-12.046,0.044513
10477,-12.245,-0.62863
10488,-13.643,-0.10492
10500,-14.494,1.5167
10512,-12.117,0.38882
10523,-9.9237,-2.4772
10535,-9.8803,-1.5272
10547,-13.548,-2.5759
10559,-15.271,-4.1538
10570,-12.09,-2.1948
10582,-13.139,-1.2273
10594,-12.955,0.23573
10605,-11.567,0.87356
10617,-10.224,-2.176
10629,-12.341,-1.4672
10641,-13.832,-0.42527
10652,-15.7,-2.9421
10664,-13.209,-3.0574
10676,-10.073,-2.7942
10688,-13.879,-1.8483
10699,-10.651,0.20239
10711,-7.9359,-0.0053128
10723,-10.569,-2.3865
10734,-11.422,-3.7227
10746,-11,-3.8759
10758,-9.5273,-0.17193
10770,-10.622,1.5417
10781,-11.426,0.2518
10793,-9.7747,-0.032205
10805,-12.97,-1.7555
10816,-12.171,-4.4
10828,-11.842,-5.6131
10840,-10.095,-2.689
10852,-11.767,-0.68355
10863,-13.558,-1.9315
10875,-15.762,-2.4581
10887,-13.905,0.10066
10898,-11.782,-1.5533
10910,-10.75,-5.5516
10922,-13.696,-2.7572
10934,-16.142,-1.6287
10945,-12.839,-1.7333
10957,-8.9473,-1.2278
10969,-8.9304,1.1338
10980,-10.806,-0.29852
10992,-10.424,-1.5904
11004,-10.658,-2.6398
11016,-11.291,-0.36138
11027,-12.87,-1.2054
11039,-12.752,-2.2833
11051,-13.872,-3.091
11063,-12.497,-3.1129
11074,-11.613,-0.4197
11086,-9.9998,-1.3675
11098,-9.7291,-2.1474
11109,-11.883,-2.3328
11121,-12.991,-2.0924
11133,-11.85,-1.5801
11145,-11.866,0.35873
11156,-12.663,-1.6422
11168,-13.26,-3.1264
11180,-12.673,-4.2301
11191,-14.211,-2.1134
11203,-12.836,-4.0352
11215,-11.836,-2.6216
11227,-11.749,0.51722
11238,-10.65,-1.7248
11250,-11.353,-3.9217
11262,-14.529,0.0044446
11273,-12.455,1.1381
11285,-10.806,-2.8038
11297,-13.027,-5.4629
11309,-14.743,-3.3747
11320,-12.384,-1.1487
11332,-11.68,-4.2858
11344,-12.779,-5.0404
11355,-13.819,0.045703
11367,-14.557,-2.151
11379,-10.953,-4.1509
11391,-11.006,-3.8508
11402,-15.934,-2.1102
11414,-11.673,-0.92667
11426,-12.336,0.8138
11438,-14.653,-0.72955
11449,-13.666,-0.38657
11461,-14.413,-3.5307
11473,-13.076,-3.901
11484,-11.751,-3.2635
11496,-12.534,-2.4536
11508,-12.216,-1.0908
11520,-10.463,-2.3101
11531,-12.717,-3.9956
11543,-13.672,-2.4501
11555,-11.392,-2.7227
11566,-10.885,-2.9875
11578,-9.5781,-4.1083
11590,-13.573,-2.7885
11602,-13.169,-2.4073
11613,-14.109,-0.048727
11625,-12.367,-1.3205
11637,-12.642,-0.08151
11648,-13.416,0.62008
11660,-11.346,0.91847
11672,-11.303,-0.39108
11684,-12.856,-1.3267
11695,-14.294,-4.8187
11707,-12.502,-4.8426
11719,-12.747,-2.7097
11730,-13.788,-2.5561
11742,-16.812,-1.8912
11754,-15.154,-3.1833
11766,-11.913,-5.8681
11777,-11.221,-2.8094
11789,-11.498,-1.1672
11801,-10.531,-1.0369
11813,-11.754,-0.57649
11824,-11.916,-2.2793
11836,-12.593,-1.4527
11848,-12.206,-3.4584
11859,-11.19,-4.6308
11871,-9.1284,-3.0271
11883,-12.681,-3.4111
11895,-12.774,-3.1484
11906,-9.9858,-0.62663
11918,-12.876,-0.82713
11930,-12.859,-3.2982
11941,-11.2,-2.8653
11953,-13.354,-2.3552
11965,-11.494,-2.759
11977,-12.717,-0.41741
11988,-14.207,-0.64241
12000,-14.305,-4.5909
12012,-10.921,-2.2272
12023,-9.6739,-0.55674
12035,-12.62,-2.6987
12047,-9.1091,-3.6031
12059,-10.214,-2.8564
12070,-15.407,-4.476
12082,-14.033,-2.6374
12094,-11.432,-1.5836
12105,-13.009,-2.1876
12117,-16.946,-0.97939
12129,-14.191,-2.1295
12141,-12.69,-1.0799
12152,-11.472,-3.5416
12164,-14.245,-3.8371
12176,-14.914,-3.6334
12188,-9.0476,-4.0398
12199,-7.8181,-3.8802
12211,-11.831,-3.0972
12223,-12.829,-2.5704
12234,-12.131,-1.9661
12246,-12.265,-1.7647
12258,-13.716,-3.1929
12270,-12.693,-1.8245
12281,-11.646,-2.091
12293,-14.972,-2.0558
12305,-14.738,-2.4265
12316,-11.289,-1.5067
12328,-11.621,-4.548
12340,-13.274,-5.1592
12352,-13.354,-5.9367
12363,-12.663,-5.2618
12375,-13.298,-3.53
12387,-14.533,-3.8861
12398,-14.372,-5.3175
12410,-11.817,-2.7779
12422,-14.545,-2.0789
12434,-16.146,-3.4737
12445,-15.216,-3.4703
12457,-12.412,-3.4844
12469,-12.182,-3.2905
12480,-12.611,-2.8106
12492,-11.465,-5.5471
12504,-13.063,-6.0023
12516,-13.809,-3.1992
12527,-14.954,-2.2028
12539,-11.27,-1.9056
12551,-12.179,-1.0302
12563,-13.361,-2.8854
12574,-12.98,-3.0739
12586,-13.06,-3.17
12598,-12.321,-6.9103
12609,-15.046,-4.0999
12621,-14.112,-1.3131
12633,-14.448,1.3572
12645,-15.693,0.48444
12656,-15.983,-1.9464
12668,-16.042,-4.1694
12680,-17.257,-6.4312
12691,-15.973,-5.7756
12703,-14.634,-2.7907
12715,-12.382,-3.7179
12727,-11.968,-3.4683
12738,-14.513,-3.7667
12750,-13.481,-4.8385
12762,-12.006,-5.3904
12773,-10.447,-6.7037
12785,-11.371,-5.0404
12797,-11.772,-2.5582
12809,-12.605,-4.985
12820,-15.345,-4.0115
12832,-12.438,-3.8849
12844,-9.8708,-4.0156
12855,-10.097,-4.0864
12867,-9.5519,-1.2855
12879,-12.186,-0.36931
12891,-14.336,-2.9196
12902,-12.634,-2.3178
12914,-9.9242,-2.0046
12926,-9.047,-6.2098
12938,-12.024,-6.2217
12949,-14.612,-0.1912
12961,-16.397,0.1386
12973,-14.302,-3.7986
12984,-12.464,-5.6796
12996,-15.328,-8.2516
13008,-13.045,-10.557
13020,-13.066,-4.0984
13031,-14.36,-2.7201
13043,-14.702,-4.9763
13055,-16.544,-4.3812
13066,-15.499,-4.5468
13078,-14.472,-4.7973
13090,-11.344,-2.4131
13102,-11.223,-1.7242
13113,-12.899,-1.197
13125,-13.199,-1.9157
13137,-12.177,-2.034
13148,-14.79,-3.436
13160,-15.446,-7.3217
13172,-15.463,-6.4292
13184,-12.42,-7.2729
13195,-12.659,-3.1432
13207,-13.923,-2.7736
13219,-14.996,-3.7748
13230,-14.072,-1.5152
13242,-14.459,-1.1949
13254,-13.534,-3.4864
13266,-14.544,-5.275
13277,-15.502,-5.6357
13289,-13.495,-3.6287
13301,-14.573,-5.5253
13313,-14.481,-8.0237
13324,-12.816,-6.2342
13336,-12.668,-4.6832
13348,-12.741,-3.7046
13359,-12.713,-2.8024
13371,-16.173,-2.4106
13383,-13.237,-4.0942
13395,-11.96,-3.1148
13406,-14.127,-2.8134
13418,-14.274,-2.5018
13430,-12.84,-3.1564
13441,-14.422,-3.6028
13453,-14.097,-5.2105
13465,-12.463,-5.837
13477,-12.245,-5.6619
13488,-14.664,-4.8021
13500,-15.985,-4.4185
13512,-14.261,-3.0514
13523,-9.5111,-3.8826
13535,-9.2768,-2.6093
13547,-12.15,-3.8297
13559,-13.891,-4.2769
13570,-14.223,-7.1035
13582,-14.862,-5.7045
13594,-15.607,-4.0307
13605,-13.817,-6.124
13617,-12.907,-7.9241
13629,-12.408,-4.235
13641,-15.209,-4.106
13652,-15.534,-5.714
13664,-15.742,-6.5154
13676,-16.808,-7.6053
13688,-15.531,-5.6957
13699,-15.869,-5.1556
13711,-20.118,-4.8655
13723,-17.008,-3.0916
13734,-15.121,-3.8968
13746,-14.414,-4.4846
13758,-13.757,-8.6709
13770,-16.061,-6.4394
13781,-14.89,-8.277
13793,-15.651,-5.057
13805,-13.49,-6.8289
13816,-13.902,-5.9567
13828,-13.19,-2.8369
13840,-14.686,-2.8299
13852,-14.406,-5.5474
13863,-12.272,-5.5003
13875,-14.97,-6.602
13887,-16.327,-4.8075
13898,-18.31,-7.7033
13910,-14.264,-6.0973
13922,-15.239,-3.7389
13934,-17.331,-3.8712
13945,-15.527,-5.6962
13957,-17.487,-8.3925
13969,-19.689,-4.7352
13980,-18.581,-4.0555
13992,-18.446,-4.1143
14004,-14.794,-3.9659
14016,-16.263,-6.1595
14027,-17.466,-7.9574
14039,-19.383,-3.175
14051,-15.313,-4.1837
14063,-18.252,-5.7609
14074,-14.771,-7.2754
14086,-16.304,-9.9861
14098,-16.416,-3.6002
14109,-15.443,-3.426
14121,-16.068,-4.6118
14133,-16.976,-7.0982
14145,-17.478,-6.6107
14156,-17.72,-9.3678
14168,-15.891,-8.6605
14180,-16.43,-5.3546
14191,-17.297,-4.935
14203,-16.564,-4.9208
14215,-16.83,-6.2557
14227,-14.641,-4.0523
14238,-14.402,-6.3118
14250,-13.989,-7.0236
14262,-12.327,-4.9935
14273,-12.818,-4.6772
14285,-16.201,-4.6323
14297,-15.942,-7.263
14309,-16.148,-8.1634
14320,-14.889,-5.4335
14332,-18.284,-3.3142
14344,-14.187,-2.1147
14355,-12.984,-2.3648
14367,-15.428,-3.7747
14379,-14.733,-4.2522
14391,-13.217,-6.8629
14402,-17.186,-4.4676
14414,-18.117,-7.9713
14426,-19.285,-6.7103
14438,-17.316,-4.6913
14449,-16.281,-4.8724
14461,-16.294,-4.6398
14473,-16.565,-4.0578
14484,-18.12,-6.0754
14496,-17.523,-5.4773
14508,-15.84,-4.7485
14520,-15.355,-7.228
14531,-16.989,-6.4685
14543,-19.484,-5.1579
14555,-20.098,-5.436
14566,-19.571,-2.7129
14578,-19.092,-1.9118
14590,-18.165,-6.765
14602,-18.062,-5.4954
14613,-17.473,-6.9907
14625,-18.907,-11.386
14637,-16.086,-6.9726
14648,-13.815,-3.061
14660,-14.008,-4.1074
14672,-16.841,-5.3959
14684,-16.919,-5.4916
14695,-16.101,-8.3795
14707,-17.046,-5.5963
14719,-14.815,-5.8559
14730,-16.522,-8.1873
14742,-14.572,-7.8907
14754,-14.843,-4.579
14766,-15.671,-4.4448
14777,-17.025,-5.1082
14789,-16.856,-8.5667
14801,-17.151,-9.9368
14813,-19.2,-8.6461
14824,-17.857,-7.6825
14836,-17.11,-7.2254
14848,-16.736,-7.4641
14859,-17.029,-5.6888
14871,-19.09,-3.9686
14883,-18.853,-4.7504
14895,-16.539,-5.7444
14906,-17.296,-4.8151
14918,-19.841,-3.2106
14930,-19.953,-6.8502
14941,-16.109,-5.0653
14953,-15.302,-2.9128
14965,-16.815,-2.174
14977,-18.788,-3.2873
14988,-18.323,-4.3096
15000,-19.523,-5.0805
15012,-19.215,-7.4584
15023,-14.571,-6.0833
15035,-15.156,-3.7918
15047,-14.254,-6.397
15059,-15.482,-5.1864
15070,-14.073,-5.6612
15082,-14.444,-10.863
15094,-14.545,-8.2337
15105,-16.646,-7.3614
15117,-20.076,-5.5107
15129,-18.608,-6.2881
15141,-21.401,-8.1832
15152,-18.059,-7.8784
15164,-16.391,-6.3635
15176,-14.497,-5.5784
15188,-16.897,-5.009
15199,-18.714,-5.0816
15211,-22.356,-6.2936
15223,-20.146,-7.3686
15234,-21.246,-6.7402
15246,-20.522,-7.3991
15258,-18.217,-10.04
15270,-18.527,-9.1758
15281,-20.239,-6.0887
15293,-18.143,-5.3499
15305,-16.585,-6.5273
15316,-16.549,-9.1031
15328,-16.101,-8.3809
15340,-14.346,-7.3052
15352,-20.175,-8.7734
15363,-19.718,-7.9628
15375,-20.078,-8.6884
15387,-18.748,-9.4027
15398,-15.851,-7.6398
15410,-15.462,-10.008
15422,-17.737,-10.535
15434,-20.017,-5.5281
15445,-18.272,-5.3663
15457,-17.971,-7.5107
15469,-20.804,-9.4232
15480,-18.325,-6.6529
15492,-19.421,-6.0696
15504,-19.44,-4.7482
15516,-17.584,-7.2034
15527,-17.596,-6.0192
15539,-20.108,-4.4622
15551,-21.272,-4.0813
15563,-19.97,-4.6767
15574,-21.014,-7.712
15586,-19.423,-10.114
15598,-18.004,-7.1026
15609,-18.446,-4.8882
15621,-16.909,-6.0588
15633,-18.524,-6.7375
15645,-21.592,-7.5949
15656,-19.807,-5.9887
15668,-18.57,-7.6946
15680,-14.074,-8.4484
15691,-13.847,-5.766
15703,-18.603,-9.6772
15715,-18.509,-8.0613
15727,-20.087,-8.7278
15738,-22.081,-8.7931
15750,-19.752,-4.225
15762,-17.532,-5.5601
15773,-17.189,-6.5481
15785,-17.949,-6.6585
15797,-19.545,-9.3433
15809,-18.425,-9.531
15820,-16.17,-8.1
15832,-17.992,-7.8144
15844,-18.691,-6.2936
15855,-18.559,-5.3609
15867,-20.072,-4.9005
15879,-19.584,-4.5499
15891,-20.094,-5.2266
15902,-19.792,-6.2659
15914,-21.634,-8.6507
15926,-22.548,-9.6043
15938,-19.277,-9.22
15949,-21.247,-9.6809
15961,-19.495,-6.0222
15973,-19.596,-5.5687
15984,-22.808,-9.1179
15996,-19.647,-7.9993
16008,-16.634,-7.8484
16020,-18.255,-4.6362
16031,-18.164,-5.8463
16043,-18.668,-7.5417
16055,-17.543,-6.3982
16066,-17.466,-6.866
16078,-20.12,-5.5169
16090,-22.137,-4.2653
16102,-18.985,-7.7215
16113,-15.916,-7.3542
16125,-17.091,-8.1955
16137,-18.942,-8.6303
16148,-21.055,-8.8927
16160,-22.294,-8.5906
16172,-20.716,-7.3902
16184,-19.025,-5.2769
16195,-17.216,-3.423
16207,-19.857,-6.331
16219,-22.775,-8.3414
16230,-21.674,-7.0814
16242,-20.322,-8.1426
16254,-19.601,-5.2518
16266,-19.412,-3.4856
16277,-19.539,-3.8777
16289,-21.801,-3.8322
16301,-19.283,-6.6672
16313,-19.201,-8.4435
16324,-18.315,-7.6437
16336,-19.247,-5.5249
16348,-22.744,-6.4814
16359,-22.519,-6.8195
16371,-21.049,-7.2527
16383,-20.334,-8.278
16395,-20.277,-11.114
16406,-19.677,-11.482
16418,-18.528,-8.4819
16430,-18.956,-9.4283
16441,-20.631,-8.6319
16453,-19.306,-6.3727
16465,-21.917,-4.9908
16477,-21.363,-5.1719
16488,-19.696,-7.9889
16500,-19.927,-9.2178
16512,-20.637,-6.8605
16523,-19.039,-9.1691
16535,-19.444,-8.1768
16547,-18.026,-4.6837
16559,-19.464,-6.7839
16570,-19.719,-8.2607
16582,-20.411,-9.7584
16594,-19.897,-9.4811
16605,-22.071,-8.1706
16617,-23.097,-8.109
16629,-23.082,-8.4074
16641,-22.072,-7.5395
16652,-21.71,-5.6297
16664,-21.839,-6.0826
16676,-19.333,-8.5548
16688,-19.54,-10.431
16699,-22.09,-7.9273
16711,-22.511,-5.8843
16723,-19.553,-6.0066
16734,-19.606,-8.0798
16746,-21.662,-10.895
16758,-21.278,-8.4251
16770,-20.652,-8.5437
16781,-20.116,-6.0742
16793,-24.196,-5.3462
16805,-20.042,-7.0338
16816,-19.095,-6.6631
16828,-23.245,-7.3375
16840,-22.618,-7.7057
16852,-25.785,-8.2976
16863,-22.549,-8.7502
16875,-20,-9.9611
16887,-18.767,-9.5307
16898,-17.893,-7.7115
16910,-17.788,-8.0316
16922,-19.403,-9.0366
16934,-19.178,-8.4259
16945,-21.833,-8.8758
16957,-24.478,-11.593
16969,-22.925,-9.8834
16980,-21.644,-11.002
16992,-21.203,-10.912
17004,-20.236,-8.2288
17016,-21.085,-7.5468
17027,-19.83,-8.7684
17039,-20.49,-8.5733
17051,-22.801,-8.1941
17063,-21.793,-8.0384
17074,-18.597,-6.1259
17086,-18.986,-5.9922
17098,-22.571,-7
17109,-24.151,-7.1487
17121,-22.233,-7.1475
17133,-26.728,-8.2117
17145,-24.479,-12.006
17156,-21.297,-12.422
17168,-20.154,-11.151
17180,-20.933,-9.7953
17191,-22.461,-7.8738
17203,-24.651,-8.8136
17215,-23.588,-8.663
17227,-22.896,-7.8833
17238,-19.67,-6.1741
17250,-20.568,-8.1242
17262,-21.56,-7.9571
17273,-22.747,-5.7479
17285,-23.649,-8.4967
17297,-22.985,-7.1495
17309,-21.877,-7.9233
17320,-21.942,-8.1505
17332,-24.786,-8.8603
17344,-25.527,-9.2174
17355,-23.316,-8.7157
17367,-21.663,-9.9536
17379,-21.198,-9.0162
17391,-21.989,-6.3354
17402,-22.5,-7.0279
17414,-20.575,-8.4878
17426,-20.368,-7.0018
17438,-21.936,-7.1588
17449,-21.191,-6.8017
17461,-23.059,-8.6565
17473,-24.011,-6.9041
17484,-24.244,-5.1892
17496,-23.552,-5.4831
17508,-24.655,-6.7547
17520,-22.29,-11.824
17531,-21.821,-9.8999
17543,-19.421,-8.4324
17555,-21.083,-8.7581
17566,-22.93,-9.6854
17578,-24.475,-8.9565
17590,-23.215,-10.47
17602,-22.89,-11.217
17613,-22.903,-10.698
17625,-24.311,-9.6695
17637,-25.752,-8.1594
17648,-23.915,-10.882
17660,-21.524,-11.865
17672,-23.494,-9.4863
17684,-22.337,-7.6525
17695,-23.591,-8.2098
17707,-22.679,-9.5262
17719,-22.246,-9.0522
17730,-21.796,-8.4926
17742,-19.959,-7.9114
17754,-21.546,-10.59
17766,-24.205,-12.841
17777,-20.486,-12.105
17789,-24.044,-11.59
17801,-23.703,-9.7893
17813,-22.351,-9.7493
17824,-22.49,-9.8747
17836,-20.991,-11.531
17848,-22.487,-14.009
17859,-23.358,-10.743
17871,-22.707,-11.173
17883,-25,-10.012
17895,-22.716,-9.4415
17906,-23.911,-11.554
17918,-21.433,-14.095
17930,-21.585,-11.703
17941,-21.192,-9.8124
17953,-20.935,-9.241
17965,-20.202,-11.339
17977,-19.993,-10.102
17988,-20.873,-9.1723
18000,-22.657,-9.0143
18012,-20.442,-10.692
18023,-19.235,-8.6671
18035,-20.05,-8.6726
18047,-25.159,-9.2151
18059,-24.084,-9.5297
18070,-22.403,-10.464
18082,-24.424,-11.479
18094,-24.259,-11.068
18105,-22.922,-11.843
18117,-21.934,-12.967
18129,-22.239,-10.874
18141,-21.633,-8.7871
18152,-24.894,-8.5616
18164,-24.455,-9.6695
18176,-27.037,-7.9681
18188,-25.836,-6.4741
18199,-23.149,-8.1466
18211,-22.621,-9.0321
18223,-21.971,-8.9113
18234,-21.205,-11.461
18246,-20.326,-10.893
18258,-23.668,-10.86
18270,-23.255,-10.2
18281,-25.102,-7.7758
18293,-25.143,-7.3286
18305,-23.499,-8.8529
18316,-23.948,-9.1764
18328,-24.286,-10.586
18340,-24.646,-11.642
18352,-23.823,-9.0019
18363,-25.231,-8.3595
18375,-23.937,-10.606
18387,-19.305,-9.6511
18398,-19.754,-8.8415
18410,-25.292,-9.6049
18422,-22.888,-10.042
18434,-20.863,-9.2926
18445,-22.897,-9.5256
18457,-24.628,-8.9479
18469,-21.764,-11.603
18480,-23.974,-10.165
18492,-24.283,-9.813
18504,-25.381,-13.082
18516,-25.16,-9.0258
18527,-23.931,-9.9606
18539,-22.275,-13.57
18551,-23.164,-7.7924
18563,-23.553,-7.7062
18574,-23.391,-10.495
18586,-25.663,-12.354
18598,-21.388,-8.6652
18609,-21.824,-9.1691
18621,-24.57,-10.112
18633,-22.422,-9.2204
18645,-21.927,-12.247
18656,-21.92,-10.056
18668,-21.94,-7.6244
18680,-22.945,-5.5665
18691,-23.725,-8.3826
18703,-23.956,-11.051
18715,-23.983,-11.796
18727,-23.503,-9.9874
18738,-23.99,-9.5493
18750,-23.256,-10.979
18762,-20.092,-11.641
18773,-21.548,-9.5664
18785,-24.004,-10.47
18797,-24.456,-10.689
18809,-24.481,-6.8111
18820,-26.552,-7.6447
18832,-24.394,-8.4899
18844,-23.948,-10.02
18855,-23.565,-11.568
18867,-24.693,-14.615
18879,-22.084,-9.8909
18891,-23.532,-7.9568
18902,-27.536,-7.8098
18914,-26.036,-9.5902
18926,-25.741,-12.24
18938,-24.224,-10.482
18949,-23.824,-8.6921
18961,-22.55,-11.08
18973,-22.946,-11.788
18984,-22.18,-10.224
18996,-23.119,-11.872
19008,-22.473,-14.129
19020,-22.907,-12.445
19031,-24.611,-13.245
19043,-22.397,-12.01
19055,-24.559,-10.337
19066,-23.914,-9.671
19078,-20.738,-12.937
19090,-22.093,-12.653
19102,-23.983,-12.548
19113,-24.87,-14.666
19125,-26.204,-11.825
19137,-26.813,-8.8492
19148,-28.068,-9.8314
19160,-24.721,-10.964
19172,-25.263,-10.51
19184,-27.171,-7.8506
19195,-25.535,-7.094
19207,-23.856,-8.411
19219,-27.07,-10.424
19230,-23.177,-9.4411
19242,-22.006,-10.331
19254,-23.836,-12.841
19266,-21.367,-11.47
19277,-25.588,-12.566
19289,-27.158,-12.421
19301,-26.225,-9.1376
19313,-22.885,-9.4105
19324,-27.142,-10.772
19336,-27.408,-12.883
19348,-24.829,-15.522
19359,-25.506,-13.745
19371,-26.074,-12.287
19383,-25.271,-10.057
19395,-22.638,-8.7395
19406,-25.104,-8.3216
19418,-26.533,-10.078
19430,-25.338,-11.894
19441,-25.065,-10.153
19453,-23.971,-9.1967
19465,-23.621,-8.1627
19477,-23.165,-14.636
19488,-23.494,-11.359
19500,-23.712,-12.704
19512,-24.135,-13.819
19523,-21.801,-13.574
19535,-22.418,-14.427
19547,-28.907,-13.321
19559,-26.412,-12.736
19570,-23.905,-12.703
19582,-23.603,-12.696
19594,-22.269,-15.557
19605,-24.017,-11.523
19617,-22.267,-11.087
19629,-24.803,-11.219
19641,-24.592,-10.974
19652,-22.318,-11.973
19664,-24.874,-10.541
19676,-24.726,-10.899
19688,-23.716,-9.9963
19699,-23.682,-11.978
19711,-24.298,-10.173
19723,-25.721,-6.3863
19734,-23.99,-7.8821
19746,-23.507,-10.495
19758,-24.581,-12.356
19770,-25.105,-11.829
19781,-22.57,-11.271
19793,-21.524,-10.787
19805,-23.286,-11.418
19816,-25.385,-8.5102
19828,-22.613,-8.2496
19840,-19.977,-12.713
19852,-20.84,-13.262
19863,-22.689,-11.102
19875,-24.686,-9.3141
19887,-24.655,-10.095
19898,-22.241,-10.175
19910,-23.078,-11.55
19922,-25.561,-11.87
19934,-27.045,-10.098
19945,-22.515,-10.034
19957,-22.653,-11.547
19969,-26.858,-10.933
19980,-27.131,-12.754
19992,-25.629,-12.373
20004,-22.949,-10.827
20016,-23.193,-10.829
20027,-21.135,-11.828
20039,-21.773,-12.891
20051,-26.014,-11.637
20063,-25.852,-13.274
20074,-28.361,-15.493
20086,-24.856,-12.862
20098,-23.337,-11.438
20109,-24.883,-12.223
20121,-22.728,-11.081
20133,-22.452,-11.212
20145,-25.712,-10.3
20156,-28.201,-12.42
20168,-27.064,-12.753
20180,-24.309,-11.077
20191,-27.219,-11.871
20203,-26.981,-10.552
20215,-24.358,-11.338
20227,-25.558,-14.681
20238,-25.94,-14.816
20250,-26.171,-12.944
20262,-25.742,-13.679
20273,-23.664,-13.203
20285,-24.526,-14.63
20297,-23.651,-11.104
20309,-24.834,-9.4145
20320,-25.37,-10.604
20332,-26.169,-13.873
20344,-27.348,-15.72
20355,-30.264,-12.938
20367,-26.928,-11.358
20379,-25.009,-12.388
20391,-25.67,-12.733
20402,-25.98,-11.046
20414,-27.264,-10.153
20426,-25.058,-12.386
20438,-25.421,-10.719
20449,-25.116,-11.299
20461,-26.464,-13.119
20473,-26.401,-11.75
20484,-27.247,-12.441
20496,-24.447,-11.747
20508,-24.997,-12.044
20520,-24.54,-14.616
20531,-24.023,-15.645
20543,-25.898,-15.11
20555,-24.027,-11.648
20566,-25.921,-9.3281
20578,-26.111,-9.1815
20590,-26.141,-10.738
20602,-26.124,-9.2735
20613,-27.949,-11.367
20625,-25.939,-10.209
20637,-26.555,-13.943
20648,-24.615,-11.764
20660,-23.888,-7.2651
20672,-27.311,-8.9782
20684,-25.984,-10.65
20695,-25.36,-10.196
20707,-23.61,-12.471
20719,-24.347,-14.389
20730,-25.295,-10.796
20742,-23.455,-7.8912
20754,-23.014,-9.2729
20766,-24.378,-12.265
20777,-24.485,-11.765
20789,-26.342,-11.919
20801,-27.699,-13.094
20813,-27.358,-13.741
20824,-28.229,-12.261
20836,-25.021,-13.379
20848,-23.218,-12.043
20859,-22.816,-12.574
20871,-25.06,-15.814
20883,-26.668,-15.268
20895,-25.948,-14.072
20906,-26.946,-10.233
20918,-26.345,-13.672
20930,-27.914,-13.034
20941,-26.018,-16.166
20953,-24.504,-13.34
20965,-24.443,-10.984
20977,-23.268,-13.683
20988,-23.163,-16.856
21000,-24.278,-14.065
21012,-26.476,-12.946
21023,-25.516,-11.293
21035,-25.531,-11.444
21047,-24.951,-13.606
21059,-27.539,-11.711
21070,-27.305,-10.81
21082,-24.609,-11.455
21094,-27.619,-13.479
21105,-24.933,-17.955
21117,-25.138,-13.548
21129,-26.222,-13.592
21141,-25.862,-14.885
21152,-26.758,-14.103
21164,-25.628,-12.444
21176,-24.708,-9.6655
21188,-23.69,-11.957
21199,-28.957,-15.078
21211,-28.337,-15.931
21223,-26.755,-15.042
21234,-26.855,-12.484
21246,-27.92,-10.841
21258,-28.949,-10.448
21270,-26.684,-11.447
21281,-24.095,-14.409
21293,-24.609,-15.711
21305,-25.73,-16.032
21316,-25.238,-15.417
21328,-27.436,-13.137
21340,-29.662,-15.988
21352,-26.805,-13.559
21363,-27.65,-11.968
21375,-27.641,-13.964
21387,-27.454,-16.02
21398,-27.716,-17.03
21410,-26.601,-10.952
21422,-25.031,-10.646
21434,-24.632,-13.379
21445,-25.039,-14.324
21457,-28.361,-15.069
21469,-28.425,-11.699
21480,-23.307,-13.445
21492,-22.658,-14.259
21504,-25.027,-12.999
21516,-27.289,-16.154
21527,-25.927,-17.724
21539,-24.993,-16.149
21551,-25.056,-16.162
21563,-25.655,-14.022
21574,-27.289,-14.182
21586,-25.842,-14.787
21598,-24.492,-14.742
21609,-24.632,-15.181
21621,-24.186,-15.034
21633,-25.832,-13.34
21645,-29.39,-12.777
21656,-27.776,-12.193
21668,-26.004,-12.864
21680,-26.512,-13.449
21691,-27.577,-13.16
21703,-24.484,-10.602
21715,-26.659,-11.733
21727,-26.288,-14.856
21738,-27.29,-14.191
21750,-28.103,-12.162
21762,-24.206,-11.623
21773,-23.079,-12.156
21785,-25.772,-13.733
21797,-28.207,-11.256
21809,-27.042,-11.879
21820,-26.217,-15.644
21832,-25.358,-13.771
21844,-25.356,-11.313
21855,-24.321,-12.997
21867,-25.12,-11.339
21879,-26.148,-10.83
21891,-26.437,-14.226
21902,-27.872,-14.003
21914,-27.639,-13.315
21926,-24.296,-11.198
21938,-25.471,-12.433
21949,-25.113,-12.252
21961,-25.069,-15.325
21973,-27.572,-14.508
21984,-27.288,-13.87
21996,-29.758,-15.008
22008,-28.495,-16.443
22020,-25.188,-16.223
22031,-24.178,-15.408
22043,-26.637,-12.21
22055,-27.56,-10.754
22066,-28.126,-14.24
22078,-26.442,-13.843
22090,-26.1,-10.99
22102,-28.345,-13.176
22113,-28.062,-13.137
22125,-27.611,-10.884
22137,-26.534,-11.687
22148,-30.001,-13.803
22160,-31.469,-12.89
22172,-26.383,-14.597
22184,-26.659,-13.602
22195,-26.034,-13.455
22207,-26.68,-13.826
22219,-27.06,-12.646
22230,-29.247,-13.25
22242,-29.46,-13.811
22254,-30.501,-12.854
22266,-27.15,-12.809
22277,-24.281,-14.688
22289,-23.713,-15.844
22301,-24.832,-14.306
22313,-27.325,-13.681
22324,-30.762,-16.448
22336,-29.007,-17.822
22348,-26.098,-17.262
22359,-25.242,-14.04
22371,-26.746,-11.696
22383,-29.866,-11.486
22395,-28.353,-10.795
22406,-25.963,-11.489
22418,-26.39,-12.481
22430,-25.952,-13.561
22441,-25.273,-14.269
22453,-27.021,-15.209
22465,-27.252,-16.951
22477,-26.062,-16.347
22488,-25.701,-16.541
22500,-24.158,-17.339
22512,-25.592,-18.214
22523,-25.017,-16.206
22535,-25.972,-12.497
22547,-26.262,-15.418
22559,-26.605,-15.866
22570,-28.673,-13.717
22582,-26.508,-14.388
22594,-27.875,-14.416
22605,-30.121,-12.818
22617,-23.95,-11.031
22629,-25.284,-10.637
22641,-28.293,-11.431
22652,-29.485,-14.018
22664,-29.59,-15.156
22676,-25.146,-14.217
22688,-24.817,-12.145
22699,-29.505,-13.382
22711,-24.491,-17.417
22723,-25.592,-17.206
22734,-28.056,-12.775
22746,-26.81,-11.258
22758,-26.893,-12.865
22770,-27.986,-13.255
22781,-27.882,-14.711
22793,-29.927,-14.325
22805,-27.743,-13.597
22816,-27.342,-14.881
22828,-30.006,-13.146
22840,-26.857,-12.522
22852,-27.573,-14.544
22863,-27.945,-13.136
22875,-26.237,-14.497
22887,-25.341,-13.576
22898,-27.961,-12.202
22910,-29.09,-14.366
22922,-28.193,-16.159
22934,-28.586,-13.972
22945,-28.73,-14.587
22957,-29.119,-13.71
22969,-29.062,-12.922
22980,-27.396,-14.595
22992,-27.308,-16.748
23004,-27.476,-14.219
23016,-29.739,-14.362
23027,-29.946,-12.873
23039,-30.912,-14.376
23051,-31.048,-15.486
23063,-30.246,-14.703
23074,-27.194,-13.051
23086,-27.844,-14.572
23098,-28.119,-15.797
23109,-29.424,-15.016
23121,-30.553,-14.637
23133,-31.046,-16.288
23145,-28.959,-18.06
23156,-28.322,-16.917
23168,-30.635,-17.864
23180,-31.178,-14.528
23191,-29.571,-15.147
23203,-29.456,-14.473
23215,-28.091,-13.032
23227,-30.485,-13.052
23238,-29.788,-14.402
23250,-27.515,-16.75
23262,-27.763,-13.216
23273,-25.97,-16.032
23285,-27.162,-14.709
23297,-30.399,-13.945
23309,-27.348,-15.422
23320,-26.585,-14.9
23332,-26.779,-19.864
23344,-28.385,-12.61
23355,-27.033,-13.378
23367,-26.614,-13.7
23379,-26.033,-13.214
23391,-26.467,-13.711
23402,-29.861,-15.333
23414,-29.526,-17.233
23426,-27.342,-14.598
23438,-28.29,-12.312
23449,-28.414,-14.786
23461,-28.362,-14.671
23473,-28.601,-10.86
23484,-29.995,-11.949
23496,-27.862,-14.51
23508,-27.499,-12.372
23520,-27.395,-11.146
23531,-27.515,-15.304
23543,-25.236,-18.015
23555,-27.5,-16.623
23566,-28.391,-14.598
23578,-27.633,-11.48
23590,-27.708,-11.86
23602,-29.048,-15.033
23613,-27.918,-14.391
23625,-27.37,-12.603
23637,-29.044,-14.79
23648,-29.323,-14.916
23660,-28.858,-17.729
23672,-29.486,-14.446
23684,-28.751,-14.284
23695,-25.773,-16.619
23707,-26.9,-14.067
23719,-26.439,-12.694
23730,-25.867,-12.977
23742,-28.371,-12.2
23754,-26.507,-15.164
23766,-26.503,-18.986
23777,-29.657,-16.795
23789,-28.673,-16.036
23801,-27.082,-15.308
23813,-28.683,-14.746
23824,-31.444,-13.523
23836,-28.787,-14.497
23848,-29.275,-14.115
23859,-29.378,-16.39
23871,-28.068,-14.432
23883,-30.466,-12.683
23895,-29.684,-13.559
23906,-29.489,-16.899
23918,-29.983,-14.66
23930,-33.4,-13.398
23941,-30.566,-14.103
23953,-27.812,-14.319
23965,-25.707,-13.995
23977,-28.104,-14.852
23988,-28.323,-16.874
