FFT,Power Spectrum
Frequency[Hz],Level-L[dB],Level-R[dB]
11.719,-23.183,-24.6
23.438,-2.886,-4.7222
35.156,-1.1525,-0.70616
46.875,1.5867,2.3135
58.594,-0.99439,6.926
70.313,1.135,8.3363
82.031,4.289,9.0768
93.75,7.814,10.92
105.47,8.013,12.324
117.19,8.1001,11.861
128.91,11.264,12.791
140.63,14.475,14.502
152.34,9.1922,12.688
164.06,1.8305,12.085
175.78,5.5459,11.042
187.5,8.2632,15.844
199.22,7.0237,15.267
210.94,4.7026,13.257
222.66,5.2935,12.745
234.38,3.1857,11.961
246.09,6.7846,10.001
257.81,4.5979,12.995
269.53,3.0533,15.151
281.25,6.6709,15.125
292.97,7.6802,12.083
304.69,7.2419,12.92
316.41,4.8233,15.676
328.13,6.5669,15.091
339.84,4.4386,15.211
351.56,3.4657,13.827
363.28,3.3682,12.578
375,2.6873,9.5445
386.72,5.5227,11.582
398.44,4.4773,14.701
410.16,4.6568,12.748
421.88,1.5151,12.571
433.59,3.1839,11.054
445.31,4.2029,15.971
457.03,4.0503,14.819
468.75,4.7718,9.7335
480.47,4.8053,10.728
492.19,5.0282,11.176
503.91,6.1403,12.094
515.63,7.2959,13.454
527.34,4.9061,13.159
539.06,5.0498,11.856
550.78,6.3827,12.173
562.5,7.6882,13.452
574.22,6.5554,13.193
585.94,1.0754,12.252
597.66,2.8799,12.068
609.38,5.5268,12.193
621.09,6.5648,12.613
632.81,4.5286,14.044
644.53,4.7793,14.128
656.25,5.7656,14.558
667.97,6.2755,12.542
679.69,5.0742,15.384
691.41,3.3109,17.649
703.13,5.8905,15.221
714.84,6.1003,15.896
726.56,0.56676,16.043
738.28,4.2764,12.802
750,8.2581,12.945
761.72,8.4368,11.791
773.44,9.1351,12.323
785.16,7.6085,14.154
796.88,3.857,12.044
808.59,4.3075,14.421
820.31,5.4147,16.844
832.03,4.9236,14.382
843.75,7.0989,13.674
855.47,4.6026,13.065
867.19,8.1781,12.734
878.91,7.3377,11.559
890.63,4.9374,11.405
902.34,4.2439,11.886
914.06,2.6185,9.7757
925.78,2.8722,9.8688
937.5,3.0357,13.721
949.22,3.5623,12.668
960.94,5.7306,14.096
972.66,4.1218,13.844
984.38,4.9579,14.977
996.09,4.0112,15.854
1007.8,4.9135,16.709
1019.5,5.1537,14.18
1031.3,7.0207,13.533
1043,5.4936,12.788
1054.7,5.4382,11.398
1066.4,6.8971,12.821
1078.1,5.7274,13.504
1089.8,5.0113,13.285
1101.6,5.7395,15.921
1113.3,4.8984,15.168
1125,5.599,11.386
1136.7,4.2419,11.927
1148.4,3.9246,13.285
1160.2,5.1429,15.417
1171.9,4.2524,14.81
1183.6,1.3831,12.112
1195.3,4.2436,12.881
1207,4.4238,13.459
1218.8,3.0747,13.851
1230.5,5.4963,15.639
1242.2,5.0202,14.459
1253.9,3.5288,8.9203
1265.6,4.162,11.463
1277.3,3.9727,11.795
1289.1,4.8239,12.931
1300.8,8.3068,11.954
1312.5,7.9016,13.283
1324.2,5.6773,15.814
1335.9,3.3408,15.667
1347.7,3.2026,11.458
1359.4,3.1228,9.9979
1371.1,5.4291,12.903
1382.8,3.6089,12.829
1394.5,4.3668,15.409
1406.3,6.9689,13.507
1418,6.5138,12.351
1429.7,6.9783,12.668
1441.4,5.8772,10.729
1453.1,4.2336,12.352
1464.8,4.4637,12.561
1476.6,5.2052,11.794
1488.3,7.3367,12.386
1500,7.2585,13.085
1511.7,7.1082,12.252
1523.4,6.9833,11.491
1535.2,3.6302,11.725
1546.9,1.2395,11.46
1558.6,4.907,9.2602
1570.3,6.7996,8.654
1582,3.658,10.911
1593.8,0.78846,11.788
1605.5,0.41556,11.319
1617.2,2.7975,11.438
1628.9,4.5775,10.773
1640.6,5.3047,12.675
1652.3,5.3945,12.049
1664.1,2.8785,10.805
1675.8,5.1787,10.33
1687.5,4.53,8.3061
1699.2,2.8867,8.7594
1710.9,3.338,11.183
1722.7,1.763,12.182
1734.4,2.4526,11.521
1746.1,3.7274,9.6661
1757.8,4.5156,12.059
1769.5,4.7638,10.882
1781.3,4.2758,12.259
1793,5.695,12.471
1804.7,6.6141,10.9
1816.4,4.802,10.867
1828.1,23.477,12.624
1839.8,33.939,20.779
1851.6,31.953,18.052
1863.3,14.164,9.3698
1875,4.5177,9.5409
1886.7,0.55779,8.905
1898.4,2.5446,10.601
1910.2,-0.024205,10.372
1921.9,1.0668,10.73
1933.6,4.8231,6.5474
1945.3,5.9147,10.905
1957,2.7102,10.75
1968.8,1.5121,10.168
1980.5,3.9268,11.102
1992.2,-0.48133,12.172
2003.9,1.5606,9.9083
2015.6,2.5574,10.381
2027.3,-1.2224,8.8528
2039.1,1.7212,11.205
2050.8,2.5515,11.03
2062.5,2.7062,10.751
2074.2,4.7654,10.667
2085.9,3.9949,9.4624
2097.7,1.7943,11.66
2109.4,-0.51713,11.896
2121.1,-1.6538,8.7101
2132.8,1.7186,11.31
2144.5,0.078857,11.782
2156.3,-0.14462,8.6696
2168,6.3773,7.639
2179.7,9.4492,9.6355
2191.4,8.0957,9.979
2203.1,7.939,10.886
2214.8,4.3748,11.92
2226.6,4.6905,13.499
2238.3,4.6095,12.315
2250,2.9134,9.9989
2261.7,1.9958,8.0916
2273.4,2.7872,10.3
2285.2,1.9621,8.1008
2296.9,0.61435,9.768
2308.6,-4.1271,11.965
2320.3,-1.2853,11.479
2332,2.9029,10.246
2343.8,1.1976,12.494
2355.5,1.5437,10.42
2367.2,1.4535,9.6424
2378.9,1.5406,12.092
2390.6,1.0265,11.846
2402.3,-0.49282,8.2631
2414.1,0.82105,9.825
2425.8,0.53597,7.0337
2437.5,1.1352,7.9934
2449.2,0.10095,8.2021
2460.9,1.121,9.1484
2472.7,2.4111,11.015
2484.4,0.96625,8.5372
2496.1,2.0758,10.305
2507.8,2.2678,10.941
2519.5,4.8138,7.3329
2531.3,2.9693,9.2045
2543,2.1813,9.5117
2554.7,2.4124,8.8198
2566.4,0.62685,8.4443
2578.1,0.90563,6.9309
2589.8,0.066011,10.136
2601.6,0.30102,12.162
2613.3,-1.5407,9.9188
2625,-1.8184,8.1697
2636.7,2.3328,7.1728
2648.4,0.8993,7.718
2660.2,1.5154,7.3743
2671.9,2.565,7.7526
2683.6,1.1458,9.9024
2695.3,0.022609,11.585
2707,0.99153,11.14
2718.8,0.9937,10.044
2730.5,2.5748,7.2199
2742.2,4.1902,7.6574
2753.9,2.5618,9.1361
2765.6,-1.0469,9.4349
2777.3,-1.9358,8.5042
2789.1,-4.1608,8.9362
2800.8,-0.056969,9.2037
2812.5,-0.55173,9.3776
2824.2,1.3105,8.7456
2835.9,-0.49428,8.3539
2847.7,1.0291,10.558
2859.4,0.34751,8.9629
2871.1,0.58545,6.9573
2882.8,-2.112,8.3341
2894.5,-1.9887,9.6277
2906.3,-0.90125,9.8808
2918,1.8858,9.9224
2929.7,0.77939,7.457
2941.4,-0.90047,7.6699
2953.1,0.057166,5.3814
2964.8,-0.053357,6.6259
2976.6,-0.42971,7.411
2988.3,-1.1825,6.7213
3000,-0.27798,3.2943
3011.7,0.23337,5.9393
3023.4,-0.23316,7.5489
3035.2,-1.2754,7.7027
3046.9,-1.8872,7.5228
3058.6,-0.26388,5.9457
3070.3,1.2457,6.5425
3082,1.4283,8.5298
3093.8,1.2807,8.5023
3105.5,2.8239,7.7074
3117.2,0.76805,7.6282
3128.9,-2.5465,9.1327
3140.6,-0.0054206,8.3192
3152.3,-0.27705,7.3322
3164.1,-2.8841,8.0308
3175.8,-3.1282,7.2257
3187.5,2.1816,8.4127
3199.2,1.6975,8.4601
3210.9,-1.3017,9.4304
3222.7,-1.9089,8.1015
3234.4,0.87918,8.1495
3246.1,-2.5848,6.469
3257.8,-3.1673,9.5897
3269.5,2.035,8.6095
3281.3,1.1762,8.7448
3293,-2.4959,6.4918
3304.7,-3.6732,4.7417
3316.4,-4.0914,7.1541
3328.1,-2.9703,9.3565
3339.8,-3.4739,7.0576
3351.6,-5.74,5.5651
3363.3,-2.6246,5.4191
3375,-1.5495,5.7555
3386.7,-1.7261,6.043
3398.4,-1.4546,10.461
3410.2,-2.036,11.092
3421.9,-1.4855,7.7752
3433.6,-2.595,5.5964
3445.3,-3.8394,6.6192
3457,-1.8066,6.5639
3468.8,-1.7003,5.6475
3480.5,-1.6997,6.9471
3492.2,-1.9146,9.4157
3503.9,-1.663,10.488
3515.6,-1.6175,9.0696
3527.3,1.4549,7.291
3539.1,-2.8054,8.6359
3550.8,-2.7649,6.952
3562.5,-2.2613,6.4463
3574.2,-2.0026,7.1335
3585.9,-1.5138,7.7515
3597.7,-1.2793,7.9855
3609.4,-2.3719,6.8132
3621.1,-4.2049,5.8405
3632.8,0.5832,5.6922
3644.5,1.8197,6.6443
3656.3,0.35043,8.9588
3668,0.14825,8.6823
3679.7,-0.36125,10.386
3691.4,-0.87543,10.782
3703.1,0.45496,11.081
3714.8,-0.60423,11.366
3726.6,-3.7586,8.9631
3738.3,-2.6281,7.6547
3750,-3.7344,9.0025
3761.7,-4.2185,6.4827
3773.4,0.36458,3.3528
3785.2,-2.2847,3.1739
3796.9,-1.942,4.0712
3808.6,-2.9179,7.0428
3820.3,-3.3602,9.4471
3832,-3.8348,7.2356
3843.8,-5.393,4.6378
3855.5,-4.5344,3.14
3867.2,-4.0337,5.843
3878.9,-3.2559,6.5944
3890.6,-2.5547,7.523
3902.3,-2.6302,7.1016
3914.1,-3.0707,11.355
3925.8,1.1449,9.5543
3937.5,0.59498,5.9097
3949.2,-2.7131,6.6745
3960.9,-2.5969,7.1452
3972.7,-4.4312,4.2291
3984.4,-3.9179,3.589
3996.1,-2.1232,4.4378
4007.8,-4.7041,8.9052
4019.5,-7.1346,9.9884
4031.3,-4.296,8.0556
4043,-3.6211,5.8399
4054.7,-1.977,6.1696
4066.4,-3.4106,2.527
4078.1,-5.5056,5.8596
4089.8,-5.562,6.0211
4101.6,-4.6505,6.8154
4113.3,-1.8439,5.7475
4125,-5.2207,8.86
4136.7,-2.0112,9.5993
4148.4,0.14512,8.4611
4160.2,-3.5912,6.2739
4171.9,-4.4383,2.3756
4183.6,-4.4735,2.0623
4195.3,-4.7176,2.9653
4207,-2.9577,6.4588
4218.8,-3.1005,7.1993
4230.5,-6.6838,5.2403
4242.2,-9.3467,7.9749
4253.9,-3.6944,6.9308
4265.6,-2.4386,5.7664
4277.3,-1.8456,5.3885
4289.1,-4.6618,4.4886
4300.8,-2.8257,1.3292
4312.5,-1.2215,4.9318
4324.2,-2.7221,7.0038
4335.9,-3.3857,3.7205
4347.7,-2.5134,8.1555
4359.4,-1.6676,6.5376
4371.1,-2.9324,7.7292
4382.8,-4.2515,6.4104
4394.5,-3.3739,5.0783
4406.3,-5.0518,7.2213
4418,-2.75,6.1156
4429.7,-1.1761,10
4441.4,-2.0692,7.3381
4453.1,-2.2005,5.6405
4464.8,-0.31002,5.6628
4476.6,-2.185,3.9078
4488.3,-0.54687,4.6031
4500,-1.1288,3.6724
4511.7,-1.0517,5.9082
4523.4,-4.4076,6.5032
4535.2,-6.151,4.212
4546.9,-5.938,5.8527
4558.6,-5.6758,4.7885
4570.3,-2.935,2.7249
4582,-1.2481,4.2406
4593.8,-1.457,4.4013
4605.5,-2.8084,3.9906
4617.2,-4.5204,4.4721
4628.9,-3.9728,7.2511
4640.6,-6.6976,4.8214
4652.3,-7.2829,2.6664
4664.1,-4.424,2.8069
4675.8,-0.94087,4.5123
4687.5,-3.3954,5.3914
4699.2,-5.6395,4.8227
4710.9,-4.1631,2.147
4722.7,-2.6852,2.3882
4734.4,-2.6069,6.8182
4746.1,-1.7855,6.5248
4757.8,-2.4815,6.3772
4769.5,-2.5109,5.4289
4781.3,-1.5411,5.0148
4793,-0.76093,6.1961
4804.7,-1.5688,7.3344
4816.4,-3.4354,3.8326
4828.1,-1.6432,1.1437
4839.8,-2.2821,3.3944
4851.6,-3.1006,5.5883
4863.3,-2.522,6.602
4875,-5.203,8.8358
4886.7,-5.5973,7.9279
4898.4,-4.6139,5.0182
4910.2,-3.3827,4.8887
4921.9,-4.7773,2.833
4933.6,-2.8727,3.8625
4945.3,-4.0833,3.0742
4957,-5.9266,6.2718
4968.8,-5.7967,6.261
4980.5,-3.3292,5.5109
4992.2,-4.2865,4.1433
5003.9,-3.6428,0.91901
5015.6,-1.686,0.99537
5027.3,-3.04,2.4042
5039.1,-3.1454,3.9672
5050.8,-1.4914,3.9766
5062.5,-2.2523,3.389
5074.2,-5.3458,4.0917
5085.9,-5.1099,4.0927
5097.7,-6.0984,3.6996
5109.4,-5.5723,3.26
5121.1,-5.8312,6.7581
5132.8,-3.6916,8.1912
5144.5,-3.5712,6.7872
5156.3,-4.8155,5.7699
5168,-3.088,4.8483
5179.7,-2.2154,0.55385
5191.4,-4.2673,0.10679
5203.1,-5.5681,3.0943
5214.8,-2.7999,6.2657
5226.6,-3.9754,6.6965
5238.3,-3.2938,4.4822
5250,-3.9461,6.3924
5261.7,-3.8514,7.732
5273.4,-7.2558,6.0924
5285.2,-9.5863,4.2332
5296.9,-7.4786,5.4302
5308.6,-4.5548,5.2204
5320.3,-6.1062,4.6793
5332,-5.3084,4.4625
5343.8,-6.0316,4.2789
5355.5,-6.1976,6.6455
5367.2,-5.3217,6.5433
5378.9,-6.8419,6.9627
5390.6,-5.7296,3.9327
5402.3,-4.2298,6.2819
5414.1,-5.7077,6.9061
5425.8,-5.3633,6.977
5437.5,-3.5097,6.2484
5449.2,-2.2852,4.6895
5460.9,-4.4697,4.3814
5472.7,-2.8556,5.2387
5484.4,-3.1831,4.3552
5496.1,-3.3934,4.4781
5507.8,-4.9343,5.6509
5519.5,-1.8539,2.0066
5531.3,2.5709,2.0124
5543,-1.4441,1.505
5554.7,-4.6726,3.3433
5566.4,-7.6251,5.5022
5578.1,-6.7956,5.9765
5589.8,-6.1677,5.4499
5601.6,-6.5321,2.7713
5613.3,-5.0222,4.4064
5625,-4.6444,6.2529
5636.7,-4.1876,4.5943
5648.4,-3.7866,0.62758
5660.2,-4.8016,2.3324
5671.9,-5.0417,0.60209
5683.6,-3.9271,3.2718
5695.3,-3.14,4.5755
5707,-3.0086,4.4417
5718.8,-6.0173,4.1525
5730.5,-5.8385,2.634
5742.2,-5.863,2.186
5753.9,-9.512,3.7149
5765.6,-5.2152,2.8777
5777.3,-2.5586,4.624
5789.1,-4.8753,8.5361
5800.8,-5.9638,5.5608
5812.5,-5.4092,4.2043
5824.2,-6.5651,4.0452
5835.9,-5.2371,5.1174
5847.7,-4.8742,2.7204
5859.4,-7.115,1.6992
5871.1,-6.8112,3.2512
5882.8,-4.0506,3.5516
5894.5,-5.6533,4.2815
5906.3,-6.2641,3.5501
5918,-6.1242,4.684
5929.7,-5.3356,2.7057
5941.4,-4.9359,1.4366
5953.1,-6.1112,3.2338
5964.8,-5.3947,2.5068
5976.6,-6.3707,0.46153
5988.3,-5.8946,1.3798
6000,-4.0141,2.497
6011.7,-4.1775,3.5524
6023.4,-6.6753,2.9695
6035.2,-4.7046,2.9287
6046.9,-4.0452,4.2462
6058.6,-3.5798,1.8237
6070.3,-5.7182,4.7676
6082,-5.3829,3.2954
6093.8,-4.8482,1.9363
6105.5,-4.3893,4.8889
6117.2,-6.6475,5.383
6128.9,-3.6905,4.8536
6140.6,-4.2534,4.0398
6152.3,-8.8301,4.1142
6164.1,-8.1355,6.0986
6175.8,-3.7838,4.8524
6187.5,-4.9808,5.1028
6199.2,-9.5934,4.298
6210.9,-8.2392,4.4681
6222.7,-7.2419,4.9636
6234.4,-8.1779,3.8311
6246.1,-9.9387,0.55479
6257.8,-5.8793,2.6956
6269.5,-4.2281,1.9052
6281.3,-6.6876,1.4798
6293,-4.2843,5.7259
6304.7,-6.1578,4.8305
6316.4,-4.2696,3.7885
6328.1,-5.3116,3.4211
6339.8,-6.7346,1.1985
6351.6,-11.544,2.2354
6363.3,-11.141,3.1899
6375,-6.4983,4.267
6386.7,-4.8567,3.0059
6398.4,-4.4504,2.3641
6410.2,-6.8134,5.1199
6421.9,-7.029,5.9435
6433.6,-8.2951,4.6646
6445.3,-6.604,3.1343
6457,-6.1678,3.3912
6468.8,-7.7714,6.5452
6480.5,-8.9962,4.1425
6492.2,-6.7453,3.7987
6503.9,-5.7664,2.8163
6515.6,-7.3924,2.1999
6527.3,-5.7707,3.8293
6539.1,-7.0882,4.8418
6550.8,-7.6697,4.2725
6562.5,-8.9764,3.6058
6574.2,-7.9527,1.1989
6585.9,-9.3921,4.1598
6597.7,-8.1147,5.1164
6609.4,-6.5975,3.445
6621.1,-6.18,3.8857
6632.8,-6.9204,3.5348
6644.5,-5.5007,1.2033
6656.3,-5.5978,1.1733
6668,-4.8064,2.7884
6679.7,-6.7016,3.1984
6691.4,-9.3441,0.9161
6703.1,-8.7484,1.9312
6714.8,-5.6861,3.6577
6726.6,-3.7197,1.4903
6738.3,-5.1424,1.7626
6750,-6.9876,4.0514
6761.7,-8.2532,1.822
6773.4,-8.7559,-0.44013
6785.2,-7.1993,3.0101
6796.9,-4.9828,2.1111
6808.6,-4.3867,-0.27867
6820.3,-6.101,1.1138
6832,-5.4981,2.237
6843.8,-2.8056,3.0889
6855.5,-5.2397,-0.41705
6867.2,-7.6384,3.3908
6878.9,-3.469,2.7872
6890.6,-5.0582,4.1653
6902.3,-6.3153,4.6693
6914.1,-7.4979,5.7831
6925.8,-9.5461,0.68186
6937.5,-8.2311,2.1969
6949.2,-5.8123,3.8698
6960.9,-2.3498,4.0508
6972.7,-4.9202,0.99093
6984.4,-8.0118,2.2359
6996.1,-7.5426,2.9673
7007.8,-6.8298,1.3164
7019.5,-7.9454,0.90616
7031.3,-9.5424,1.9453
7043,-7.692,2.723
7054.7,-7.214,-1.1149
7066.4,-8.0857,-0.71715
7078.1,-6.9664,-2.5337
7089.8,-6.2508,-1.5188
7101.6,-6.8621,2.4966
7113.3,-6.507,-1.5479
7125,-6.7839,0.50446
7136.7,-5.3532,2.4987
7148.4,-5.5491,3.5738
7160.2,-5.7733,6.3434
7171.9,-5.2516,6.9519
7183.6,-6.6853,2.6767
7195.3,-7.6741,3.5049
7207,-6.4869,2.0717
7218.8,-4.3228,-0.46436
7230.5,-6.1795,1.6848
7242.2,-9.0744,2.6887
7253.9,-7.1176,1.8979
7265.6,-9.5797,2.5865
7277.3,-11.193,4.6564
7289.1,-7.6587,3.6738
7300.8,-6.155,-0.014884
7312.5,-8.1751,1.891
7324.2,-9.3118,0.74384
7335.9,-5.0701,1.1515
7347.7,-6.5533,2.5214
7359.4,-5.846,2.54
7371.1,-4.5462,2.5241
7382.8,-5.641,2.5294
7394.5,-7.1276,2.9578
7406.3,-8.5241,3.2342
7418,-6.897,1.5969
7429.7,-6.6673,3.9598
7441.4,-5.1246,5.7434
7453.1,-4.0764,3.4628
7464.8,-7.1917,3.5801
7476.6,-4.9383,1.6801
7488.3,-4.3546,4.304
7500,-3.5379,4.8499
7511.7,-4.0363,0.78583
7523.4,-7.7993,4.3518
7535.2,-7.805,1.1121
7546.9,-7.4062,4.496
7558.6,-9.517,0.36986
7570.3,-8.5992,0.13973
7582,-7.7183,0.65407
7593.8,-4.8043,3.2958
7605.5,-7.7189,2.7673
7617.2,-6.8742,-0.1887
7628.9,-5.0735,1.1143
7640.6,-8.4054,5.8915
7652.3,-9.081,5.0507
7664.1,-7.9099,-0.59714
7675.8,-8.7591,-1.1532
7687.5,-9.2449,0.15113
7699.2,-9.5265,-0.54983
7710.9,-10.88,1.2096
7722.7,-11.654,2.3282
7734.4,-7.6958,1.1233
7746.1,-5.4268,-2.4362
7757.8,-5.4351,-0.051017
7769.5,-6.6133,1.3804
7781.3,-6.3011,0.4795
7793,-5.8632,1.5989
7804.7,-8.5188,1.1115
7816.4,-9.0065,1.8141
7828.1,-9.8166,2.7837
7839.8,-9.3362,4.6039
7851.6,-9.5714,4.0912
7863.3,-5.1076,2.3396
7875,-4.6874,3.8713
7886.7,-7.2017,4.4871
7898.4,-6.6439,2.5295
7910.2,-6.7454,-1.4035
7921.9,-7.5718,2.5752
7933.6,-7.9906,2.1257
7945.3,-8.4905,-1.3879
7957,-8.9076,-0.33792
7968.8,-5.8835,0.79417
7980.5,-5.1164,3.2825
7992.2,-7.5309,4.9542
8003.9,-11.089,1.8447
8015.6,-8.8487,-0.78373
8027.3,-6.3681,-1.4996
8039.1,-6.7041,0.39671
8050.8,-7.9199,0.92451
8062.5,-10.597,0.45505
8074.2,-11.809,-0.42783
8085.9,-11.248,-0.052085
8097.7,-9.2858,-0.64091
8109.4,-4.2517,1.7286
8121.1,-3.3701,1.9277
8132.8,-6.0977,1.4136
8144.5,-7.2824,1.386
8156.3,-7.2997,2.3789
8168,-7.8262,1.7943
8179.7,-9.3877,-1.0359
8191.4,-6.556,-1.8946
8203.1,-9.9004,2.4674
8214.8,-10.708,4.9314
8226.6,-7.5794,1.9511
8238.3,-7.2684,-0.62193
8250,-9.0129,1.2171
8261.7,-11.334,2.8702
8273.4,-9.742,-0.76593
8285.2,-11.509,0.52846
8296.9,-11.148,2.804
8308.6,-9.6545,2.1674
8320.3,-9.8827,0.52157
8332,-10.125,-0.67035
8343.8,-10.703,-0.70443
8355.5,-8.5206,-1.3254
8367.2,-7.3944,-0.93807
8378.9,-8.6548,1.321
8390.6,-10.916,-0.63057
8402.3,-11.719,1.7499
8414.1,-14.055,1.919
8425.8,-10.624,0.61678
8437.5,-11.903,-1.7919
8449.2,-11.691,-2.9328
8460.9,-10.333,-2.3753
8472.7,-11.062,1.0879
8484.4,-13.414,2.5278
8496.1,-11.046,-1.1594
8507.8,-8.8009,-0.9224
8519.5,-11.303,1.205
8531.3,-11.375,3.3415
8543,-9.515,3.6929
8554.7,-7.2075,0.90824
8566.4,-5.213,-0.46278
8578.1,-7.7709,2.2143
8589.8,-10.955,0.38222
8601.6,-8.7378,1.9247
8613.3,-10.327,-0.21266
8625,-12.309,-2.8576
8636.7,-12.091,0.58848
8648.4,-10.239,0.030587
8660.2,-9.3745,-3.5799
8671.9,-8.2366,-2.5682
8683.6,-8.4368,0.86314
8695.3,-10.983,3.2623
8707,-9.5654,4.1255
8718.8,-9.5453,-0.040652
8730.5,-9.7052,-3.4166
8742.2,-9.3886,-0.83207
8753.9,-11.383,-0.46271
8765.6,-12.283,-0.46283
8777.3,-9.0701,0.063202
8789.1,-8.0347,0.39763
8800.8,-8.7861,-0.57414
8812.5,-10.576,2.828
8824.2,-7.2484,2.4457
8835.9,-9.5937,-0.16265
8847.7,-10.483,-2.0292
8859.4,-9.5413,-2.3468
8871.1,-10.91,1.6884
8882.8,-9.0807,3.3747
8894.5,-9.6784,1.1593
8906.3,-11.933,1.1652
8918,-10.222,1.3311
8929.7,-9.0478,2.8872
8941.4,-9.8251,3.7
8953.1,-10.845,1.4575
8964.8,-12.115,-2.5026
8976.6,-10.934,-1.1713
8988.3,-12.488,-1.0737
9000,-11.378,-5.5318
9011.7,-11.486,-2.1066
9023.4,-9.9787,-1.1961
9035.2,-8.5342,-2.7459
9046.9,-9.545,0.16267
9058.6,-10.458,-0.30175
9070.3,-8.9432,1.2782
9082,-10.107,3.0927
9093.8,-12.646,1.7956
9105.5,-12.377,-0.092521
9117.2,-10.674,-1.3058
9128.9,-8.5985,-3.4188
9140.6,-11.31,-4.0585
9152.3,-11.198,-4.9365
9164.1,-11.467,-2.8035
9175.8,-9.5134,-2.6958
9187.5,-10.356,-2.8014
9199.2,-11.658,-3.4866
9210.9,-13.77,-1.8747
9222.7,-12.289,-2.167
9234.4,-9.9715,0.15914
9246.1,-10.503,3.5279
9257.8,-8.8874,3.7146
9269.5,-10.688,0.25002
9281.3,-11.216,-2.1834
9293,-7.4396,-3.1796
9304.7,-10.146,-2.3048
9316.4,-11.197,-1.4163
9328.1,-12.027,-0.28324
9339.8,-15.075,-0.18622
9351.6,-13.816,-2.229
9363.3,-11.494,-0.5494
9375,-11.547,-0.6177
9386.7,-10.85,-1.566
9398.4,-11.743,-0.48522
9410.2,-12.649,0.29717
9421.9,-13.586,1.7713
9433.6,-12.952,-0.65168
9445.3,-12.584,-1.1275
9457,-8.9086,1.2141
9468.8,-7.8872,-0.28428
9480.5,-9.7009,-5.8484
9492.2,-11.054,-5.7457
9503.9,-13.444,-3.157
9515.6,-12.747,-1.6037
9527.3,-11.382,-2.8079
9539.1,-14.694,-1.4333
9550.8,-14.894,0.84151
9562.5,-12.363,-0.50564
9574.2,-10.998,-3.0177
9585.9,-10.669,-0.59027
9597.7,-9.7751,-0.061413
9609.4,-8.9258,0.67272
9621.1,-14.023,1.9064
9632.8,-16.274,-0.60861
9644.5,-15.774,-2.8585
9656.3,-13.367,-2.6546
9668,-12.774,0.19454
9679.7,-10.19,-1.3983
9691.4,-8.8823,-0.91659
9703.1,-11.594,-0.52717
9714.8,-11.745,-0.7156
9726.6,-11.143,-0.27501
9738.3,-11.05,-2.1199
9750,-10.504,-2.2219
9761.7,-11.225,0.13663
9773.4,-14.151,0.068659
9785.2,-11.719,0.83004
9796.9,-9.2276,-0.027791
9808.6,-8.899,-2.7221
9820.3,-7.6723,-2.5678
9832,-8.8844,-3.218
9843.8,-10.521,-2.7671
9855.5,-11.437,-2.9409
9867.2,-12.45,-1.0385
9878.9,-11.408,-0.30994
9890.6,-10.26,-3.5824
9902.3,-8.8597,-1.2534
9914.1,-9.6075,-1.8291
9925.8,-11.202,-2.7877
9937.5,-9.6226,-1.5499
9949.2,-10.662,-0.999
9960.9,-12.754,-4.6063
9972.7,-13.015,-4.4348
9984.4,-13.056,-1.842
9996.1,-11.887,-1.432
10008,-14.128,-1.093
10020,-11.55,0.65208
10031,-12.629,-1.5385
10043,-11.353,-2.0859
10055,-9.0246,-1.174
10066,-11.702,-3.0474
10078,-12.887,-0.81497
10090,-13.705,0.076455
10102,-11.11,-0.58996
10113,-12.647,1.1247
10125,-10.895,-1.3568
10137,-8.22,-0.72032
10148,-11.47,1.1096
10160,-11.525,-0.38402
10172,-10.153,-1.218
10184,-12.446,2.2303
10195,-12.965,-0.37586
10207,-9.4807,-1.7516
10219,-9.9084,-1.1581
10230,-10.253,-0.76876
10242,-11.165,-3.0008
10254,-12.07,-4.3576
10266,-13.447,-3.7742
10277,-11.735,-1.1032
10289,-10.175,-1.0732
10301,-10.921,-2.2235
10313,-11.679,-0.40051
10324,-12.361,-1.0136
10336,-13.155,-1.8236
10348,-10.52,-4.2058
10359,-12.161,-2.3716
10371,-14.974,0.023292
10383,-11.713,-1.8331
10395,-9.2752,-0.94781
10406,-14.311,-6.0942
10418,-12.941,0.019561
10430,-12.965,-0.53237
10441,-12.496,-2.6653
10453,-10.817,0.23811
10465,-10.498,-0.44696
10477,-12.439,-4.5684
10488,-12.217,-3.5105
10500,-11.664,-2.358
10512,-11.845,-0.70759
10523,-12.767,1.3442
10535,-10.762,1.3504
10547,-12.113,0.56202
10559,-12.817,0.47647
10570,-15.088,-2.7069
10582,-12.315,-5.0837
10594,-13.391,-2.3021
10605,-14.486,-1.2298
10617,-14.767,0.30592
10629,-14.737,-1.6553
10641,-14.747,-3.4604
10652,-14.26,-2.2035
10664,-11.658,-2.3774
10676,-10.574,-2.1682
10688,-14.378,-0.73062
10699,-11.5,-1.1559
10711,-10.685,-2.1779
10723,-11.766,-0.49429
10734,-12.856,-0.21601
10746,-13.346,-2.7939
10758,-11.749,-4.7291
10770,-12.552,-4.8527
10781,-14,-4.5202
10793,-15.284,-1.2352
10805,-14.134,-0.71688
10816,-12.745,-1.5608
10828,-13.668,-4.1594
10840,-14.883,-5.5772
10852,-8.8985,-3.4496
10863,-10.141,-2.5796
10875,-13.451,-4.1378
10887,-11.592,-4.9889
10898,-12.281,-4.5542
10910,-10.963,-3.0737
10922,-8.7609,-2.1085
10934,-9.0257,-3.6304
10945,-12.422,-2.666
10957,-13.989,-3.0493
10969,-14.701,-1.5412
10980,-12.681,-1.2668
10992,-15.032,-2.6362
11004,-14.063,-0.4758
11016,-14.936,-0.10472
11027,-13.795,-3.0727
11039,-14.217,-6.5859
11051,-13.322,-4.2408
11063,-13.279,-2.967
11074,-12.198,1.0866
11086,-12.848,1.0539
11098,-14.488,-4.8275
11109,-13.529,-4.6406
11121,-15,-3.5462
11133,-12.629,-3.0787
11145,-11.482,-2.1469
11156,-10.557,-1.088
11168,-12.349,-1.3553
11180,-14.166,-4.8534
11191,-12.969,-2.9238
11203,-9.1993,-6.0337
11215,-8.9903,-1.9019
11227,-12.967,-2.0352
11238,-15.039,-4.1219
11250,-14.193,-4.0518
11262,-11.472,-2.8909
11273,-13.432,-1.2202
11285,-11.433,-2.0181
11297,-14.9,-0.43317
11309,-14.457,-2.6925
11320,-11.118,-2.6022
11332,-9.5555,-1.1167
11344,-10.458,-6.0149
11355,-16.41,-10.074
11367,-10.925,-5.936
11379,-11.34,-4.6625
11391,-11.247,-5.0576
11402,-12.657,-4.2994
11414,-13.602,-3.7377
11426,-13.096,-2.8555
11438,-14.14,-5.0969
11449,-14.772,-6.3836
11461,-11.03,-3.7781
11473,-11.915,-5.4609
11484,-12.291,-5.398
11496,-10.849,-0.96122
11508,-11.632,0.5708
11520,-11.743,-1.0831
11531,-12.128,-1.535
11543,-10.715,-3.0859
11555,-15.088,-2.4367
11566,-11.21,-2.7722
11578,-12.728,-6.8974
11590,-12.607,-9.2406
11602,-11.489,-6.9153
11613,-13.392,-5.6729
11625,-14.417,-9.0601
11637,-13.325,-5.8904
11648,-11.814,-1.9163
11660,-11.752,-0.19654
11672,-11.861,-5.0909
11684,-13.091,-4.1395
11695,-15.765,-5.0388
11707,-12.552,-2.7055
11719,-12,-1.1411
11730,-11.169,-4.5217
11742,-12.628,-4.3259
11754,-12.445,-4.5517
11766,-14.306,-4.5312
11777,-12.219,-4.8903
11789,-10.69,-3.8832
11801,-11.4,-4.5573
11813,-13.043,-7.3467
11824,-10.863,-5.0982
11836,-10.08,-4.6481
11848,-13.172,-4.6816
11859,-13.767,-4.7105
11871,-13.025,-1.3639
11883,-12.587,-3.5135
11895,-13.443,-5.1542
11906,-13.947,-6.0611
11918,-12.15,-5.4632
11930,-11.2,-4.1034
11941,-11.508,-9.1593
11953,-12.097,-7.6507
11965,-12.834,-4.7768
11977,-13.726,-3.0442
11988,-14.761,-4.2435
12000,-14.258,-3.7294
12012,-14.862,-4.0918
12023,-15.326,-5.382
12035,-14.062,-5.5723
12047,-14.381,-5.5889
12059,-14.304,-5.8248
12070,-11.442,-5.9506
12082,-13.377,-5.0891
12094,-14.016,-2.3216
12105,-12.924,-1.1575
12117,-12.473,-1.7031
12129,-13.79,-3.0225
12141,-13.483,-0.5204
12152,-10.548,-2.0768
12164,-11.916,-3.8852
12176,-12.893,-1.9703
12188,-13.607,-2.1029
12199,-13.412,-0.8723
12211,-15.144,0.065586
12223,-14.913,-2.328
12234,-12.775,-3.8206
12246,-10.024,-7.1624
12258,-12.385,-7.1396
12270,-14.208,-4.8908
12281,-14.322,-2.6976
12293,-13.133,-7.6037
12305,-14.745,-6.4447
12316,-13.545,-5.5073
12328,-14.686,-8.0612
12340,-12.09,-6.2296
12352,-11.586,-5.9803
12363,-10.344,-5.8416
12375,-10.132,-6.6649
12387,-13.809,-5.2888
12398,-13.752,-3.6169
12410,-13.519,-4.0706
12422,-12.644,-4.1602
12434,-13.319,-6.9536
12445,-14.371,-4.1247
12457,-13.293,-4.1213
12469,-14.804,-4.0632
12480,-13.855,-5.2364
12492,-13.993,-6.0995
12504,-13.091,-5.5909
12516,-10.767,-4.4655
12527,-13.167,-5.669
12539,-9.6906,-6.1624
12551,-10.348,-7.0935
12563,-14.296,-4.6202
12574,-15.372,-4.6828
12586,-16.29,-5.7019
12598,-16.141,-4.2273
12609,-14.046,-2.2148
12621,-14.222,-3.1236
12633,-15.797,-8.902
12645,-15.745,-7.8148
12656,-13.272,-4.6914
12668,-11.972,-3.4058
12680,-11.7,-5.1512
12691,-14.128,-7.4562
12703,-16.56,-7.3245
12715,-14.55,-5.1754
12727,-15.25,-4.2553
12738,-13.978,-5.3433
12750,-15.503,-8.5759
12762,-15.546,-7.6132
12773,-14.779,-4.4411
12785,-11.66,-3.3857
12797,-10.075,-3.3406
12809,-10.808,-5.4985
12820,-13.412,-6.9822
12832,-14.306,-7.4889
12844,-13.188,-9.9489
12855,-12.674,-6.9416
12867,-13.803,-6.1523
12879,-12.593,-7.0984
12891,-11.967,-5.3715
12902,-10.992,-5.5457
12914,-11.779,-4.4789
12926,-12.91,-4.3089
12938,-13.16,-2.9973
12949,-13.986,-1.9838
12961,-15.075,-5.9755
12973,-15.174,-4.9848
12984,-11.114,-3.9061
12996,-11.229,-4.3192
13008,-15.443,-4.2899
13020,-12.312,-3.156
13031,-11.892,-4.7956
13043,-12.617,-4.1176
13055,-12.099,-3.001
13066,-11.607,-5.4951
13078,-12.969,-6.5577
13090,-11.94,-6.787
13102,-12.992,-5.4683
13113,-13.823,-5.8361
13125,-12.172,-4.4366
13137,-9.8735,-4.2366
13148,-12.929,-4.5756
13160,-12.602,-2.8682
13172,-13.988,-3.4094
13184,-15.764,-5.6521
13195,-13.967,-6.7186
13207,-16.337,-5.432
13219,-13.235,-2.8063
13230,-13.76,-5.0943
13242,-14.937,-4.6446
13254,-13.703,-7.7694
13266,-17.01,-6.838
13277,-14.463,-3.1349
13289,-12.39,-3.0132
13301,-13.58,-7.7148
13313,-15.486,-9.0563
13324,-15.629,-3.6078
13336,-18.358,-2.8132
13348,-17.179,-5.4983
13359,-13.146,-7.4857
13371,-11.978,-5.7764
13383,-16.334,-3.6688
13395,-16.345,-4.2122
13406,-11.279,-8.7436
13418,-7.8476,-6.5517
13430,-10.208,-5.9321
13441,-16.814,-1.5213
13453,-13.825,-2.017
13465,-12.403,-5.2635
13477,-15.189,-7.5364
13488,-16.205,-6.4497
13500,-16.504,-3.2833
13512,-14.061,-5.8626
13523,-16.749,-7.2585
13535,-12.876,-7.693
13547,-12.379,-9.2431
13559,-14.743,-8.3663
13570,-14.23,-3.8281
13582,-17.165,-4.7236
13594,-15.182,-6.9093
13605,-16.047,-6.9218
13617,-13.177,-7.0529
13629,-15.226,-6.3289
13641,-11.508,-5.4189
13652,-11.361,-1.7866
13664,-15.953,-1.6214
13676,-13.849,-6.4477
13688,-10.779,-8.8157
13699,-13.766,-7.8982
13711,-13.749,-7.3184
13723,-16.07,-7.1589
13734,-18.157,-5.6045
13746,-14.008,-4.2623
13758,-15.04,-3.8007
13770,-15.092,-3.8506
13781,-14.77,-7.3854
13793,-17.239,-8.5772
13805,-14.409,-7.1759
13816,-16.059,-8.3816
13828,-15.487,-6.2016
13840,-17.497,-5.659
13852,-17.478,-7.0003
13863,-13.814,-5.4764
13875,-15.609,-5.8772
13887,-18.547,-6.738
13898,-16.724,-10.643
13910,-16.595,-5.5774
13922,-15.197,-8.6162
13934,-14.251,-5.1613
13945,-13.317,-6.6706
13957,-13.066,-9.1026
13969,-14.485,-10.957
13980,-17.857,-8.4131
13992,-15.694,-6.2381
14004,-16.436,-6.9334
14016,-17.032,-5.4444
14027,-15.718,-6.6568
14039,-15.923,-9.5842
14051,-14.554,-10.061
14063,-11.508,-6.4793
14074,-13.426,-7.2821
14086,-14.799,-7.9088
14098,-17.506,-4.5049
14109,-18.889,-4.4164
14121,-17.196,-7.5578
14133,-14.969,-5.5944
14145,-15.493,-5.7618
14156,-13.738,-5.3022
14168,-14.252,-8.5998
14180,-14.86,-10.95
14191,-14.336,-4.1291
14203,-16.691,-4.026
14215,-15.858,-7.5467
14227,-17.688,-7.5573
14238,-14.77,-5.3031
14250,-14.187,-6.461
14262,-15.714,-8.5165
14273,-17.359,-5.4823
14285,-18.042,-8.7074
14297,-18.808,-8.179
14309,-18.785,-8.5063
14320,-15.692,-7.0697
14332,-14.051,-4.7089
14344,-14.334,-4.8472
14355,-16.737,-8.4133
14367,-17.437,-5.5843
14379,-17.197,-4.1884
14391,-17.665,-4.7967
14402,-14.305,-7.3888
14414,-15.052,-7.7722
14426,-16.441,-8.0801
14438,-15.844,-4.7448
14449,-15.678,-3.6193
14461,-17.578,-3.9621
14473,-17.275,-6.8297
14484,-18.679,-6.3509
14496,-19.655,-6.4012
14508,-16.452,-7.2867
14520,-17.585,-6.7643
14531,-19.655,-5.2624
14543,-18.998,-4.0551
14555,-17.79,-3.456
14566,-16.341,-4.544
14578,-16.213,-5.8964
14590,-16.792,-5.8909
14602,-17.782,-5.8462
14613,-18.176,-6.7472
14625,-18.499,-7.3765
14637,-14.174,-3.3795
14648,-13.828,-7.2091
14660,-17.21,-8.9117
14672,-19.068,-7.3454
14684,-19.252,-5.9407
14695,-18.442,-4.8747
14707,-16.911,-5.3026
14719,-15.855,-6.4854
14730,-15.993,-6.3867
14742,-16.701,-2.6181
14754,-17.53,-2.8686
14766,-19.622,-4.0584
14777,-18.593,-4.993
14789,-16.361,-7.1305
14801,-18.212,-5.7779
14813,-18.518,-8.9201
14824,-18.465,-9.9421
14836,-17.531,-7.9048
14848,-18.252,-6.51
14859,-18.921,-6.5135
14871,-15.529,-8.4274
14883,-17.425,-8.461
14895,-15.427,-6.9037
14906,-13.203,-6.1714
14918,-14.78,-6.7208
14930,-16.456,-8.0124
14941,-15.18,-6.3878
14953,-17.014,-6.5678
14965,-18.73,-7.7439
14977,-17.731,-10.082
14988,-20.177,-8.6918
15000,-19.397,-5.1585
15012,-17.865,-7.4287
15023,-20.145,-9.6844
15035,-16.215,-9.9978
15047,-16.812,-7.4125
15059,-16.222,-6.6253
15070,-18.238,-8.9635
15082,-17.373,-6.8943
15094,-17.784,-7.0517
15105,-18.966,-7.5867
15117,-19.962,-8.4384
15129,-18.482,-8.4935
15141,-17.786,-9.3004
15152,-18.428,-9.1069
15164,-17.34,-9.7583
15176,-18.336,-6.7678
15188,-19.641,-5.4188
15199,-18.957,-5.2306
15211,-17.712,-7.7821
15223,-17.588,-6.8164
15234,-17.723,-6.9531
15246,-18.893,-7.5187
15258,-19.178,-7.1237
15270,-19.219,-10.204
15281,-17.282,-9.6888
15293,-15.525,-8.0847
15305,-18.816,-7.5012
15316,-18.597,-7.0382
15328,-14.981,-5.125
15340,-17.897,-5.0924
15352,-21.742,-5.5494
15363,-19.631,-7.6092
15375,-16.207,-10.848
15387,-18.081,-8.5103
15398,-20.757,-8.6783
15410,-18.366,-6.2988
15422,-16.274,-8.7869
15434,-17.536,-7.8108
15445,-20.015,-8.2558
15457,-20.708,-8.4628
15469,-20.71,-9.0726
15480,-19.673,-7.0825
15492,-17.461,-8.5975
15504,-19.549,-9.5231
15516,-20.874,-7.2388
15527,-21.595,-6.2212
15539,-24.638,-7.8072
15551,-20.903,-9.7112
15563,-17.606,-12.957
15574,-18.126,-10.614
15586,-18.149,-8.0797
15598,-19.56,-7.0706
15609,-23.484,-5.9985
15621,-22.404,-5.6425
15633,-18.557,-4.5365
15645,-17.648,-3.7663
15656,-17.972,-3.572
15668,-19.11,-4.0148
15680,-17.92,-5.6559
15691,-17.355,-6.6415
15703,-24.785,-8.5751
15715,-20.549,-8.1771
15727,-20.728,-9.9316
15738,-18.541,-8.5496
15750,-19.445,-6.1495
15762,-18.95,-3.8387
15773,-19.41,-2.9701
15785,-18.515,-3.4385
15797,-16.914,-3.0066
15809,-15.371,-5.0822
15820,-14.525,-9.0831
15832,-17.001,-8.8848
15844,-19.367,-4.6414
15855,-19.671,-4.9561
15867,-17.863,-6.0087
15879,-17.079,-5.8129
15891,-19.771,-8.7243
15902,-23.88,-10.253
15914,-20.772,-9.9101
15926,-19.903,-9.6301
15938,-15.85,-7.1679
15949,-13.842,-7.72
15961,-15.302,-9.696
15973,-17.707,-7.6949
15984,-19.811,-8.9952
15996,-20.094,-9.6962
16008,-21.259,-8.6054
16020,-21.031,-10.085
16031,-17.654,-7.3204
16043,-19.095,-8.4984
16055,-19.948,-7.8668
16066,-18.349,-7.6393
16078,-21.444,-7.2427
16090,-19.29,-6.5307
16102,-17.93,-10.522
16113,-17.467,-10.489
16125,-17.774,-11.503
16137,-19.858,-12.931
16148,-21.656,-11.475
16160,-22.946,-9.4976
16172,-20.861,-6.5158
16184,-20.106,-6.8784
16195,-19.263,-10.611
16207,-22.109,-7.0572
16219,-20.229,-8.8941
16230,-23.203,-8.5666
16242,-19.257,-11.806
16254,-18.135,-5.6553
16266,-18.894,-2.9405
16277,-18.971,-4.5856
16289,-18.94,-5.5807
16301,-19.221,-8.0386
16313,-23.718,-10.468
16324,-22.428,-11.944
16336,-20.93,-7.7856
16348,-20.214,-6.4253
16359,-20.103,-6.9031
16371,-19.518,-10.634
16383,-22.022,-11.769
16395,-21.758,-10.769
16406,-22.682,-7.209
16418,-20.469,-7.3782
16430,-19.787,-8.2058
16441,-21.116,-7.3712
16453,-22.575,-7.3055
16465,-19.667,-9.213
16477,-21.914,-11.868
16488,-20.722,-10.998
16500,-20.775,-8.3843
16512,-23.021,-7.0456
16523,-20.994,-10.608
16535,-21.614,-9.0791
16547,-23.618,-9.9118
16559,-23.57,-6.8962
16570,-24.365,-5.7304
16582,-22.714,-5.2842
16594,-19.408,-5.4904
16605,-21.847,-6.6904
16617,-20.7,-7.4338
16629,-17.607,-7.639
16641,-17.306,-7.8105
16652,-20.5,-6.7888
16664,-23.737,-10.431
16676,-23.32,-8.8301
16688,-19.213,-11.362
16699,-18.224,-9.9488
16711,-20.265,-8.4229
16723,-22.148,-8.6521
16734,-22.117,-8.179
16746,-25.88,-6.6334
16758,-24.398,-7.6779
16770,-21.595,-10.587
16781,-20.744,-8.9834
16793,-21.458,-9.1195
16805,-19.07,-8.2551
16816,-19.304,-8.1252
16828,-20.627,-9.5862
16840,-19.281,-9.7244
16852,-21.339,-9.577
16863,-22.237,-11.512
16875,-20.036,-10.32
16887,-21.282,-9.7727
16898,-21.749,-12.525
16910,-23.581,-11.559
16922,-22.048,-9.5074
16934,-21.681,-10.879
16945,-20.795,-9.4378
16957,-21.799,-8.3799
16969,-21.904,-9.4509
16980,-20.156,-11.431
16992,-20.591,-10.547
17004,-16.938,-9.338
17016,-20.018,-8.3537
17027,-24.054,-8.8374
17039,-23.59,-10.164
17051,-21.748,-10.459
17063,-21.237,-8.7026
17074,-22.97,-9.1196
17086,-21.957,-10.28
17098,-21.232,-11.452
17109,-21.444,-13.063
17121,-18.833,-9.6114
17133,-18.745,-8.4437
17145,-22.533,-9.6984
17156,-19.831,-5.8018
17168,-18.907,-5.9377
17180,-19.797,-7.6904
17191,-19.611,-7.6228
17203,-21.423,-5.9902
17215,-22.898,-6.1983
17227,-23.729,-7.8501
17238,-19.564,-9.5075
17250,-18.093,-11.033
17262,-19.989,-12.089
17273,-20.39,-10.515
17285,-19.837,-9.594
17297,-20.036,-9.3087
17309,-18.878,-7.5505
17320,-19.019,-7.2426
17332,-19.246,-8.8472
17344,-20.525,-7.9082
17355,-19.114,-8.7346
17367,-19.392,-8.126
17379,-20.503,-9.8219
17391,-21.614,-10.682
17402,-21.361,-11.193
17414,-21.608,-12.03
17426,-20.388,-10.601
17438,-20.581,-9.0674
17449,-21.431,-8.4706
17461,-21.987,-7.6584
17473,-19.965,-8.4966
17484,-18.926,-11.707
17496,-20.991,-12.704
17508,-20.848,-12.358
17520,-20.197,-10.951
17531,-18.603,-8.3332
17543,-17.988,-8.5233
17555,-19.688,-8.7481
17566,-19.375,-8.5448
17578,-19.833,-10.414
17590,-20.349,-12.198
17602,-20.621,-9.9203
17613,-21.927,-8.8959
17625,-23.391,-10.362
17637,-25.04,-7.4249
17648,-22.098,-7.4121
17660,-23.897,-12.229
17672,-25.7,-13.106
17684,-24.005,-11.593
17695,-23.188,-11.351
17707,-20.698,-10.835
17719,-19.846,-10.761
17730,-23.623,-8.3138
17742,-23.546,-7.6497
17754,-23.045,-11.385
17766,-22.99,-8.0264
17777,-21.157,-8.6943
17789,-21.632,-9.9182
17801,-22.459,-7.7852
17813,-23.044,-9.0893
17824,-25.916,-12.607
17836,-25.369,-13.165
17848,-21.288,-9.7036
17859,-20.798,-7.7512
17871,-19.556,-9.6098
17883,-21.437,-8.9328
17895,-21.627,-8.4912
17906,-20.928,-11.53
17918,-23.335,-9.7519
17930,-25.293,-11.932
17941,-23.663,-12.383
17953,-21.535,-12.851
17965,-22.7,-10.989
17977,-22.287,-9.6417
17988,-21.346,-10.462
18000,-23.48,-11.194
18012,-25.204,-11.379
18023,-23.295,-11.852
18035,-20.942,-9.138
18047,-19.38,-8.3434
18059,-18.199,-10.893
18070,-18.685,-10.329
18082,-21.292,-8.5217
18094,-22.841,-9.1675
18105,-24.543,-10.513
18117,-22.633,-9.9599
18129,-22.697,-10.047
18141,-23.574,-9.9268
18152,-21.597,-12.617
18164,-20.814,-11.773
18176,-22.43,-10.88
18188,-21.919,-12
18199,-23.424,-10.549
18211,-24.728,-11.201
18223,-24.214,-9.6558
18234,-23.767,-8.9092
18246,-24.156,-10.018
18258,-25.326,-10.998
18270,-24.252,-11.554
18281,-25.599,-13.424
18293,-25.461,-13.346
18305,-22.938,-10.905
18316,-21.727,-9.5495
18328,-22.367,-10.551
18340,-23.133,-10.788
18352,-22.045,-10.658
18363,-24.369,-9.9987
18375,-26.076,-9.078
18387,-25.8,-13.022
18398,-24.684,-13.48
18410,-20.403,-11.122
18422,-20.838,-10.076
18434,-24.033,-10.665
18445,-25.884,-12.835
18457,-25.058,-9.8238
18469,-21.802,-8.5716
18480,-24.664,-7.7312
18492,-24.365,-9.2543
18504,-22.746,-13.99
18516,-22.817,-13.46
18527,-26.032,-11.18
18539,-24.798,-12.489
18551,-22.261,-14.578
18563,-22.034,-10.737
18574,-22.638,-10.881
18586,-20.121,-13.504
18598,-18.927,-13.765
18609,-22.399,-13.589
18621,-24.755,-12.009
18633,-21.856,-10.115
18645,-23.878,-9.9746
18656,-22.756,-9.3758
18668,-20.499,-9.5073
18680,-22.872,-8.238
18691,-25.835,-11.076
18703,-25.173,-11.45
18715,-26.553,-10.881
18727,-24.498,-12.228
18738,-22.969,-11.421
18750,-25.136,-9.7435
18762,-25.301,-10.151
18773,-23.486,-12.692
18785,-23.388,-12.87
18797,-22.47,-12.283
18809,-21.835,-11.502
18820,-23.412,-10.483
18832,-25.206,-9.8435
18844,-25.913,-9.2243
18855,-24.619,-8.9571
18867,-22.302,-13.256
18879,-21.655,-14.366
18891,-24.725,-14.136
18902,-24.407,-16.553
18914,-25.233,-12.095
18926,-26.136,-12.276
18938,-24.387,-14.442
18949,-23.039,-10.477
18961,-21.39,-10.779
18973,-21.627,-11.779
18984,-26.005,-11.983
18996,-26.415,-10.138
19008,-25.261,-10.292
19020,-23.95,-12.341
19031,-24.097,-14.594
19043,-23.116,-14.188
19055,-22.688,-11.888
19066,-22.931,-11.301
19078,-26.242,-12.822
19090,-26.472,-11.963
19102,-26.159,-11.413
19113,-23.752,-12.301
19125,-22.444,-13.633
19137,-23.817,-11.479
19148,-21.481,-12.941
19160,-20.502,-10.449
19172,-23.066,-13.645
19184,-25.328,-14.099
19195,-26.138,-12.88
19207,-27.642,-12.29
19219,-25.524,-13.212
19230,-23.839,-10.951
19242,-25.561,-9.835
19254,-26.57,-9.5881
19266,-23.215,-11.016
19277,-20.631,-14.277
19289,-22.143,-15.042
19301,-24.719,-12.9
19313,-25.11,-14.424
19324,-24.72,-9.3778
19336,-28.069,-7.8644
19348,-24.492,-6.5374
19359,-24.018,-8.8201
19371,-24.182,-10.285
19383,-24.678,-12.177
19395,-27.301,-12.913
19406,-25.709,-12.516
19418,-25.475,-11.182
19430,-24.388,-9.6331
19441,-23.864,-10.267
19453,-23.554,-12.598
19465,-22.408,-11.613
19477,-23.174,-13.379
19488,-25.099,-13.014
19500,-23.903,-11.645
19512,-22.954,-12.137
19523,-23.847,-11.361
19535,-26.775,-12.468
19547,-21.567,-9.9489
19559,-23.215,-8.435
19570,-27.856,-12.842
19582,-29.001,-14.055
19594,-25.822,-13.886
19605,-25.326,-14.588
19617,-24.345,-12.859
19629,-24.682,-13.523
19641,-26.37,-13.3
19652,-23.397,-9.4481
19664,-23.187,-10.879
19676,-23.233,-10.884
19688,-25.25,-11.003
19699,-26.764,-11.788
19711,-27.212,-14.88
19723,-27.301,-12.148
19734,-28.312,-10.387
19746,-27.096,-13.668
19758,-25.877,-14.915
19770,-24.05,-9.3464
19781,-22.683,-9.2864
19793,-22.945,-14.208
19805,-24.383,-13.625
19816,-25.632,-13.064
19828,-25.26,-12.917
19840,-26.29,-13.506
19852,-26.14,-11.453
19863,-25.599,-9.8014
19875,-25.301,-13.109
19887,-23.342,-14.695
19898,-22.828,-11.937
19910,-25.713,-14.19
19922,-26.275,-15.45
19934,-23.816,-15.422
19945,-26.706,-13.311
19957,-28.046,-10.537
19969,-24.835,-11.119
19980,-25.358,-12.577
19992,-29.516,-13.486
20004,-25.501,-13.067
20016,-23.643,-14.559
20027,-25.011,-12.334
20039,-25.055,-8.9404
20051,-26.692,-11.274
20063,-26.134,-13.9
20074,-24.898,-11.735
20086,-25.489,-12.686
20098,-26.977,-10.785
20109,-26.227,-12.178
20121,-26.177,-14.072
20133,-26.745,-14.501
20145,-24.802,-17.017
20156,-25.058,-12.698
20168,-28.404,-10.277
20180,-29.586,-13.781
20191,-27.129,-11.771
20203,-23.991,-11.544
20215,-24.468,-12.608
20227,-23.826,-13.164
20238,-23.534,-13.981
20250,-24.672,-10.527
20262,-23.312,-7.3524
20273,-22.159,-9.6501
20285,-22.727,-13.078
20297,-25.282,-12.396
20309,-29.636,-14.043
20320,-25.841,-12.748
20332,-23.829,-12.927
20344,-25.425,-12.366
20355,-26.076,-12.628
20367,-23.367,-13.479
20379,-21.692,-12.639
20391,-23.633,-13.75
20402,-25.841,-11.286
20414,-21.383,-12.477
20426,-25.842,-15.337
20438,-25.513,-16.886
20449,-29.023,-12.754
20461,-26.353,-10.876
20473,-25.207,-10.051
20484,-24.755,-14.288
20496,-24.775,-13.531
20508,-24.301,-12.334
20520,-26.029,-13.112
20531,-25.869,-11.553
20543,-25.058,-11.704
20555,-24.687,-12.94
20566,-25.048,-12.191
20578,-26.643,-13.149
20590,-27.262,-12.466
20602,-26.618,-11.552
20613,-24.747,-11.461
20625,-22.915,-12.877
20637,-23.371,-14.361
20648,-25.006,-11.877
20660,-23.326,-10.805
20672,-24.675,-13.026
20684,-25.469,-14.306
20695,-24.203,-10.059
20707,-25.842,-10.736
20719,-27.465,-12.493
20730,-26.537,-14.337
20742,-24.931,-13.475
20754,-26.815,-12.979
20766,-27.191,-16.459
20777,-26.186,-15.276
20789,-24.684,-12.039
20801,-24.084,-11.231
20813,-22.742,-10.197
20824,-23.347,-12.339
20836,-25.77,-13.84
20848,-26.191,-15.9
20859,-28.422,-17.249
20871,-26.067,-14.177
20883,-24.582,-12.698
20895,-30.563,-13.68
20906,-26.281,-15.524
20918,-24.106,-15.614
20930,-23.832,-16.601
20941,-25.187,-15.6
20953,-24.143,-13.418
20965,-22.638,-15.592
20977,-24.636,-15.224
20988,-24.831,-13.727
21000,-24.373,-15.571
21012,-26.966,-15.684
21023,-26.182,-12.773
21035,-25.163,-13.11
21047,-24.156,-13.396
21059,-28.074,-12.31
21070,-27.083,-11.456
21082,-26.93,-12.042
21094,-23.405,-13.954
21105,-25.016,-14.473
21117,-28.468,-12.24
21129,-24.644,-10.998
21141,-24.354,-11.175
21152,-27.168,-10.881
21164,-24.487,-10.79
21176,-25.989,-11.252
21188,-28.256,-15.061
21199,-25.875,-15.761
21211,-26.537,-12.538
21223,-25.796,-13.629
21234,-26.933,-14.697
21246,-33.32,-14.699
21258,-25.997,-12.823
21270,-28.619,-12.446
21281,-27.653,-13.386
21293,-25.551,-16.408
21305,-25.302,-13.555
21316,-25.523,-12.269
21328,-26.66,-13.633
21340,-24.142,-10.325
21352,-23.532,-11.559
21363,-26.692,-12.403
21375,-30.239,-11.748
21387,-29.068,-13.452
21398,-26.308,-10.777
21410,-24.011,-9.2983
21422,-24.845,-11.532
21434,-25.953,-14.743
21445,-25.471,-10.098
21457,-25.368,-10.877
21469,-25.671,-12.852
21480,-26.863,-15.773
21492,-28.789,-14.953
21504,-24.093,-13.383
21516,-25.152,-13.037
21527,-27.609,-13.206
21539,-29.547,-15.308
21551,-25.194,-14.842
21563,-22.971,-13.062
21574,-22.103,-10.954
21586,-23.763,-11.96
21598,-29.805,-15
21609,-27.122,-13.677
21621,-25.785,-15.019
21633,-28.941,-13.673
21645,-26.608,-10.637
21656,-26.43,-10.505
21668,-26.057,-12.034
21680,-27.683,-14.316
21691,-26.857,-10.47
21703,-25.759,-10.034
21715,-23.881,-13.849
21727,-23.639,-12.466
21738,-25.971,-13.547
21750,-26.126,-13.841
21762,-25.532,-15.615
21773,-26.941,-13.754
21785,-30.261,-14.118
21797,-24.515,-11.197
21809,-23.359,-13.691
21820,-24.2,-14.456
21832,-27.019,-11.12
21844,-27.967,-9.2523
21855,-27.768,-11.731
21867,-29.167,-13.301
21879,-28.174,-13.827
21891,-25.57,-15.452
21902,-25.934,-15.12
21914,-27.619,-14.033
21926,-26.316,-15.251
21938,-27.574,-15.692
21949,-28.85,-13.492
21961,-26.617,-9.9219
21973,-26.132,-10.416
21984,-26.23,-13.61
21996,-26.523,-14.588
22008,-27.274,-13.85
22020,-30.73,-12.974
22031,-30.664,-12.356
22043,-30.646,-11.998
22055,-28.241,-12.524
22066,-25.854,-16.503
22078,-26.598,-12.061
22090,-29.651,-11.986
22102,-27.57,-14.063
22113,-24.575,-10.982
22125,-26.957,-11.86
22137,-27.412,-13.207
22148,-25.548,-12.913
22160,-27.197,-14.808
22172,-24.885,-14.841
22184,-27.766,-15.115
22195,-31.963,-12.289
22207,-29.88,-11.255
22219,-30.161,-14.499
22230,-26.364,-13.812
22242,-25.276,-14.251
22254,-26.556,-15.503
22266,-27.488,-16.052
22277,-27.102,-15.619
22289,-27.415,-15.267
22301,-27.5,-16.921
22313,-27.477,-17.968
22324,-25.678,-13.912
22336,-25.403,-11.089
22348,-28.198,-9.5343
22359,-28.469,-11.41
22371,-26.837,-13.769
22383,-25.351,-14.457
22395,-27.494,-13.54
22406,-28.69,-15.312
22418,-29.82,-13.8
22430,-26.131,-14.726
22441,-24.759,-17.448
22453,-26.931,-15.181
22465,-28.109,-13.115
22477,-25.572,-13.592
22488,-27.016,-13.744
22500,-29.824,-12.693
22512,-29.336,-12.742
22523,-30.705,-12.758
22535,-30.325,-12.901
22547,-27.804,-14.735
22559,-29.036,-16.494
22570,-29.42,-15.549
22582,-27.389,-13.528
22594,-25.691,-15.579
22605,-27.479,-16.647
22617,-28.379,-16.012
22629,-31.283,-13.911
22641,-29.635,-12.678
22652,-28.436,-13.155
22664,-30.255,-12.842
22676,-28.656,-12.011
22688,-29.977,-12.42
22699,-28.566,-12.751
22711,-29.783,-14.744
22723,-24.92,-14.035
22734,-23.729,-11.461
22746,-27.595,-11.143
22758,-26.576,-13.031
22770,-24.823,-16.383
22781,-28.543,-16.818
22793,-27.774,-14.548
22805,-27.038,-12.756
22816,-25.576,-12.841
22828,-27.526,-15.75
22840,-31.448,-17.539
22852,-30.72,-16.11
22863,-26.582,-14.51
22875,-26.806,-13.846
22887,-27.551,-15.634
22898,-27.609,-13.92
22910,-28.353,-12.964
22922,-29.595,-13.868
22934,-27.716,-15.846
22945,-27.489,-15.204
22957,-28.14,-14.125
22969,-27.998,-11.792
22980,-26.541,-14.406
22992,-27.992,-14.259
23004,-27.194,-13.075
23016,-25.591,-12.686
23027,-28.294,-11.917
23039,-30.558,-13.62
23051,-32.084,-14.78
23063,-31.669,-12.696
23074,-30.146,-13.181
23086,-30.001,-15.343
23098,-30.057,-16.997
23109,-27.231,-16.583
23121,-25.708,-13.799
23133,-27.594,-16.236
23145,-27.332,-13.913
23156,-28.402,-13.712
23168,-26.771,-14.283
23180,-27.552,-12.421
23191,-27.627,-13.706
23203,-27.267,-14.235
23215,-29.273,-13.312
23227,-29.094,-13.486
23238,-28.121,-13.618
23250,-27.523,-16.131
23262,-30.253,-14.775
23273,-29.902,-15.187
23285,-29.071,-16.705
23297,-29.544,-11.985
23309,-27.389,-13.529
23320,-29.632,-15.083
23332,-27.767,-14.306
23344,-27.189,-14.933
23355,-32.96,-16.226
23367,-30.721,-16.737
23379,-28.087,-18.174
23391,-25.313,-16.174
23402,-26.793,-13.544
23414,-27.79,-14.367
23426,-28.95,-15.478
23438,-28.858,-15.651
23449,-27.488,-13.532
23461,-28.122,-15.871
23473,-28.982,-14.721
23484,-28.502,-16.548
23496,-29.958,-17.848
23508,-28.126,-19.425
23520,-26.034,-15.126
23531,-26.363,-14.239
23543,-27.77,-15.347
23555,-27.086,-17.263
23566,-27.962,-14.54
23578,-29.713,-13.508
23590,-29.954,-16.425
23602,-26.538,-13.751
23613,-25.079,-12.042
23625,-26.208,-14.435
23637,-27.463,-17.957
23648,-31.716,-14.219
23660,-28.149,-14.29
23672,-26.798,-14.187
23684,-28.858,-12.885
23695,-32.407,-12.247
23707,-30.56,-11.931
23719,-24.342,-13.66
23730,-22.684,-14.468
23742,-26.356,-18.556
23754,-25.555,-14.076
23766,-24.732,-14.854
23777,-26.271,-13.397
23789,-26.229,-13.954
23801,-28.018,-14.453
23813,-29.92,-16.329
23824,-31.75,-16.93
23836,-29.557,-16.172
23848,-30.614,-16.252
23859,-25.825,-15.494
23871,-24.298,-16.539
23883,-26.516,-16.749
23895,-28.213,-14.246
23906,-28.692,-14.809
23918,-29.756,-16.319
23930,-30.147,-16.226
23941,-28.387,-17.107
23953,-28.537,-13.182
23965,-27.39,-11.696
23977,-25.183,-12.372
23988,-25.987,-15.047
