FFT,Power Spectrum
Frequency[Hz],Level-L[dB],Level-R[dB]
11.719,-18.792,-23.195
23.438,1.5438,-2.6978
35.156,1.8019,-0.61507
46.875,1.4972,1.0065
58.594,7.0784,4.3939
70.313,5.2589,3.7072
82.031,4.5233,4.0533
93.75,9.9512,6.6342
105.47,8.652,5.7476
117.19,2.6183,3.036
128.91,14.314,10.427
140.63,15.644,12.022
152.34,10.304,8.2651
164.06,4.4055,3.354
175.78,8.0885,4.2525
187.5,14.616,12.01
199.22,12.842,11.433
210.94,9.1031,10.263
222.66,14.76,8.4644
234.38,15.961,5.4173
246.09,10.805,3.8195
257.81,9.0215,4.5297
269.53,8.6894,2.1599
281.25,5.8613,3.8992
292.97,2.9228,5.9179
304.69,4.8597,3.5245
316.41,6.0924,3.2553
328.13,1.7668,4.0092
339.84,2.9182,4.084
351.56,5.5986,7.0083
363.28,9.2452,4.0795
375,9.501,0.84185
386.72,7.0001,5.1982
398.44,8.7578,5.7693
410.16,12.79,10.524
421.88,12.265,10.682
433.59,11.209,8.5635
445.31,8.7043,5.7225
457.03,2.4442,2.4429
468.75,7.4285,3.5048
480.47,3.4305,2.2074
492.19,1.0376,5.2865
503.91,5.2316,3.8853
515.63,2.5609,2.0872
527.34,6.9787,1.8426
539.06,6.4999,5.3767
550.78,4.9622,5.4134
562.5,10.172,7.688
574.22,10.576,8.3503
585.94,7.1941,5.3241
597.66,8.4927,3.1702
609.38,7.7296,3.5045
621.09,5.5057,4.9784
632.81,3.8934,6.1916
644.53,5.109,5.3472
656.25,5.1761,5.0906
667.97,4.5252,2.9657
679.69,8.9288,5.7249
691.41,10.337,6.0074
703.13,4.8999,5.7835
714.84,3.2852,7.582
726.56,4.0048,5.3503
738.28,3.8161,3.5753
750,6.4918,6.4816
761.72,6.0006,6.0189
773.44,5.3222,4.9527
785.16,6.2799,4.6381
796.88,2.5083,2.5823
808.59,5.706,4.2289
820.31,6.2293,5.345
832.03,7.8959,3.0292
843.75,5.5508,3.2993
855.47,3.0262,5.262
867.19,7.4482,3.6903
878.91,7.1049,3.3308
890.63,4.6632,3.0906
902.34,3.0048,3.8735
914.06,7.5869,4.0088
925.78,8.6874,3.691
937.5,5.6023,4.617
949.22,6.4477,7.0133
960.94,7.5416,8.1517
972.66,8.0864,7.2279
984.38,4.6881,5.5218
996.09,3.9253,2.5704
1007.8,5.9689,5.3894
1019.5,7.4305,6.1556
1031.3,9.1154,4.6931
1043,8.3803,7.9208
1054.7,3.5586,6.5302
1066.4,1.2917,4.058
1078.1,5.4274,1.2901
1089.8,5.0083,1.8641
1101.6,4.1924,5.3305
1113.3,5.3657,7.2442
1125,6.4002,6.5132
1136.7,7.6662,6.9213
1148.4,9.6236,6.7249
1160.2,8.7142,5.2671
1171.9,9.142,7.051
1183.6,6.9548,5.1802
1195.3,6.0137,4.7939
1207,7.0214,6.7887
1218.8,9.8307,6.7596
1230.5,8.7547,7.5609
1242.2,8.322,7.8997
1253.9,7.767,7.1
1265.6,6.1393,3.9201
1277.3,5.4358,7.3093
1289.1,6.4949,5.7611
1300.8,7.7888,6.9203
1312.5,5.4243,5.8424
1324.2,4.7687,5.4558
1335.9,7.2804,7.2421
1347.7,5.3294,6.4325
1359.4,4.4983,3.4691
1371.1,7.1479,7.4432
1382.8,5.8739,6.8716
1394.5,6.4814,8.6251
1406.3,4.8757,9.6591
1418,6.7444,8.4114
1429.7,6.4626,3.141
1441.4,3.1904,3.0269
1453.1,2.103,5.2201
1464.8,3.8173,7.441
1476.6,4.7728,6.3996
1488.3,3.256,3.4887
1500,5.5955,1.9942
1511.7,9.0055,2.8403
1523.4,6.1243,2.4585
1535.2,6.959,7.0575
1546.9,7.3894,5.3075
1558.6,8.1389,3.0939
1570.3,9.8263,4.1757
1582,6.3695,3.2328
1593.8,8.5757,3.6857
1605.5,9.2144,6.202
1617.2,7.747,9.1982
1628.9,3.3422,6.085
1640.6,3.9975,2.5602
1652.3,6.5944,3.2687
1664.1,8.7572,4.5899
1675.8,7.7804,7.0831
1687.5,5.0227,3.3917
1699.2,5.7826,2.7805
1710.9,3.193,2.9546
1722.7,5.743,3.4665
1734.4,5.944,3.175
1746.1,5.7394,3.6468
1757.8,4.7398,2.9328
1769.5,4.9407,4.3296
1781.3,4.0005,6.1394
1793,4.2864,5.1863
1804.7,6.1206,2.1762
1816.4,4.9462,2.6702
1828.1,4.3812,5.3372
1839.8,7.6084,6.4611
1851.6,6.3659,3.4066
1863.3,9.2308,7.3511
1875,7.7259,6.7625
1886.7,7.6722,3.5995
1898.4,6.0637,1.5359
1910.2,5.5782,2.2264
1921.9,4.6419,4.834
1933.6,7.2307,5.1399
1945.3,8.8911,3.0664
1957,5.2546,4.6829
1968.8,2.1624,4.2545
1980.5,0.095399,2.2668
1992.2,2.8808,6.9443
2003.9,0.7759,5.5525
2015.6,0.79085,2.0026
2027.3,2.4205,3.6486
2039.1,5.1818,3.6785
2050.8,3.3588,1.753
2062.5,4.9652,1.347
2074.2,5.4527,1.492
2085.9,3.2244,1.8609
2097.7,2.3983,4.7547
2109.4,2.6354,3.3121
2121.1,2.5571,2.6087
2132.8,1.4377,1.7423
2144.5,1.1276,1.1205
2156.3,0.61026,2.1095
2168,1.4698,1.4723
2179.7,4.5984,-0.38187
2191.4,3.1899,-0.34949
2203.1,0.74017,2.7177
2214.8,3.4894,3.6096
2226.6,2.4827,2.7734
2238.3,2.0521,3.2278
2250,1.9455,1.3175
2261.7,1.7561,1.833
2273.4,2.3837,2.5208
2285.2,4.7679,1.1481
2296.9,2.915,-3.6489
2308.6,0.032587,-1.8857
2320.3,1.4168,1.5933
2332,3.4318,-0.30599
2343.8,3.0201,1.6711
2355.5,2.6557,3.8561
2367.2,4.2014,4.6754
2378.9,6.9254,3.4795
2390.6,7.306,3.4031
2402.3,4.1008,2.833
2414.1,3.2005,1.1263
2425.8,2.0975,2.1097
2437.5,-0.43873,1.695
2449.2,-0.69749,-1.2706
2460.9,-1.1155,-0.48523
2472.7,1.6942,0.59015
2484.4,1.0021,-0.49719
2496.1,3.5289,-2.3868
2507.8,1.8146,1.6946
2519.5,-0.17319,2.3757
2531.3,-1.276,0.28638
2543,0.98544,0.26259
2554.7,1.1283,1.3773
2566.4,0.15548,1.2663
2578.1,4.6856,1.1209
2589.8,4.9482,2.6194
2601.6,5.3001,4.2785
2613.3,1.541,1.9904
2625,0.68052,-0.086377
2636.7,1.9799,2.3253
2648.4,2.726,4.1058
2660.2,1.7684,3.9415
2671.9,3.3726,3.296
2683.6,1.5109,1.4434
2695.3,1.7385,-0.01392
2707,1.7051,0.39918
2718.8,-1.5972,-0.83678
2730.5,-0.78829,-1.8141
2742.2,0.6683,-0.84449
2753.9,-0.94241,1.2301
2765.6,0.57808,3.0518
2777.3,0.70098,-1.0136
2789.1,0.032107,0.86326
2800.8,-0.41882,1.9729
2812.5,-0.18464,2.3043
2824.2,2.2285,1.9153
2835.9,2.3978,1.4164
2847.7,2.8003,0.41661
2859.4,0.68931,0.50431
2871.1,-2.1317,2.8782
2882.8,-2.5459,1.4766
2894.5,-1.7546,2.0036
2906.3,-2.7894,3.227
2918,-3.0556,0.73125
2929.7,-4.6128,-0.53072
2941.4,-1.9858,1.8347
2953.1,-0.88468,1.2349
2964.8,-0.16585,-2.9376
2976.6,-0.15353,-1.036
2988.3,-0.5555,-0.382
3000,-0.68592,-1.9467
3011.7,-1.8796,1.0345
3023.4,-0.067102,2.4619
3035.2,1.5489,3.8835
3046.9,0.41577,-0.33732
3058.6,0.35944,0.6009
3070.3,-1.1367,1.8952
3082,-1.4213,-1.6002
3093.8,-1.2621,0.61843
3105.5,-0.098819,0.80819
3117.2,-0.59885,0.26325
3128.9,-2.1341,-1.1152
3140.6,0.098306,1.341
3152.3,2.0134,0.044091
3164.1,1.6848,-3.0002
3175.8,1.8277,-2.3683
3187.5,2.5364,-1.028
3199.2,1.6955,-0.17589
3210.9,0.46177,0.80736
3222.7,-1.0575,-3.709
3234.4,-0.49854,-2.1271
3246.1,-0.056063,-1.7651
3257.8,2.4203,-1.0444
3269.5,1.9789,-2.7494
3281.3,0.88467,-0.15091
3293,-0.13204,-0.77037
3304.7,-0.87936,-1.1587
3316.4,-0.3509,-2.7655
3328.1,-4.3433,-1.3197
3339.8,-5.2649,-0.38985
3351.6,-2.317,0.31346
3363.3,-2.0416,-0.19722
3375,1.4088,0.52474
3386.7,3.619,1.3309
3398.4,0.97358,-0.71667
3410.2,-0.40143,-0.73689
3421.9,1.2384,-1.0285
3433.6,1.4569,-4.6982
3445.3,3.4331,-2.1466
3457,-0.22856,-1.5413
3468.8,1.5821,-1.9712
3480.5,-0.18274,-0.98868
3492.2,-1.4003,-1.4603
3503.9,1.3381,-1.2298
3515.6,0.66866,-1.7289
3527.3,-1.5166,-0.76643
3539.1,-0.52237,0.4696
3550.8,-1.7061,-2.9364
3562.5,-2.7283,-3.3471
3574.2,-2.5522,-0.72193
3585.9,-1.2696,-1.5611
3597.7,-1.2496,-2.1943
3609.4,-2.0431,-0.75514
3621.1,-3.487,1.0991
3632.8,-1.9214,-1.0462
3644.5,-2.004,-2.2734
3656.3,-1.252,-1.137
3668,-3.8618,-0.8957
3679.7,-1.496,-1.0807
3691.4,-1.7401,-2.185
3703.1,0.75831,-0.21169
3714.8,0.62307,1.3492
3726.6,-0.33661,0.092243
3738.3,-3.2749,-2.8985
3750,-4.5542,-0.88821
3761.7,-4.2765,-1.0147
3773.4,-4.0947,-2.2207
3785.2,-1.8634,-0.46543
3796.9,-1.3985,-1.6594
3808.6,0.084681,-4.2556
3820.3,1.8971,-0.51209
3832,-0.11573,0.37168
3843.8,-2.1078,-2.7387
3855.5,1.499,0.26148
3867.2,1.0973,0.13151
3878.9,-2.3603,-1.5573
3890.6,-3.2939,0.69328
3902.3,-0.44313,1.329
3914.1,-1.1511,-1.6222
3925.8,-4.4563,-3.9174
3937.5,-0.7999,0.12016
3949.2,-2.6056,0.28224
3960.9,-4.1655,-0.36609
3972.7,-3.1282,-0.83373
3984.4,-4.7266,-0.97585
3996.1,0.69861,-1.6158
4007.8,0.97785,0.90609
4019.5,-0.41461,0.08057
4031.3,-2.4267,0.11937
4043,-3.6075,3.5011
4054.7,-1.0162,3.1975
4066.4,-3.8986,-0.93771
4078.1,-6.5988,-1.0173
4089.8,-0.98643,0.032906
4101.6,0.33844,0.85539
4113.3,-0.9909,2.2314
4125,-1.7859,0.9877
4136.7,1.1946,-3.0408
4148.4,0.30675,-4.8158
4160.2,-1.5532,-2.8322
4171.9,-1.784,-1.6819
4183.6,-0.9356,-2.0013
4195.3,-3.2469,-4.5014
4207,-1.3706,0.17385
4218.8,1.2219,-1.6609
4230.5,-1.5009,-5.7377
4242.2,-7.4651,-1.5558
4253.9,-7.0419,-2.8957
4265.6,-3.932,-1.5106
4277.3,-2.7705,1.0828
4289.1,-3.9763,-2.8443
4300.8,-2.4295,-3.1509
4312.5,-3.0509,-0.90513
4324.2,0.53887,-2.2707
4335.9,-1.9278,-2.2569
4347.7,-3.5557,-1.2875
4359.4,-1.064,-1.6908
4371.1,-4.1637,-1.9972
4382.8,-5.3205,-4.1314
4394.5,-1.89,-4.6125
4406.3,-3.3148,-2.78
4418,-2.4858,-2.6602
4429.7,-1.9127,-1.3805
4441.4,-0.1421,-1.9333
4453.1,0.048317,-3.2102
4464.8,-1.1017,-4.9228
4476.6,-1.996,-3.1181
4488.3,-5.0555,-0.68054
4500,-0.020523,0.39684
4511.7,-0.62315,-2.8314
4523.4,-2.0721,-3.4966
4535.2,-3.4964,-1.5155
4546.9,-3.7783,-1.434
4558.6,-3.0078,-1.5071
4570.3,-3.2239,-4.049
4582,-3.5514,-3.6918
4593.8,-4.6842,-5.5782
4605.5,-2.4911,-4.0662
4617.2,0.11716,-2.875
4628.9,-2.2495,-2.7313
4640.6,-6.1682,-2.5724
4652.3,-1.6218,-2.2208
4664.1,-2.4091,-1.7306
4675.8,-4.1372,-1.2098
4687.5,-5.6256,-1.1993
4699.2,-0.68868,0.032072
4710.9,-0.26009,-0.53358
4722.7,-5.2073,-3.3926
4734.4,-5.4256,-5.3307
4746.1,-6.7227,-7.4585
4757.8,-2.7744,-3.4453
4769.5,-2.329,0.95055
4781.3,-1.0189,-0.023015
4793,-3.5858,-2.9643
4804.7,-4.4045,-3.9486
4816.4,-4.0435,-7.2637
4828.1,-3.0258,-5.9271
4839.8,-1.1786,-2.6746
4851.6,-0.24066,-1.1614
4863.3,-4.2191,-4.7464
4875,-4.4596,-2.3761
4886.7,-2.3964,-4.8892
4898.4,-2.2333,-2.6793
4910.2,-1.6367,-1.8879
4921.9,-3.662,-2.6984
4933.6,-1.5721,-2.1318
4945.3,-2.249,-1.7456
4957,-4.1693,-6.4707
4968.8,-5.1543,-6.2431
4980.5,-3.5976,-3.0143
4992.2,-2.2997,-2.6874
5003.9,-3.5682,-5.7292
5015.6,-5.1227,-4.2772
5027.3,-4.4443,-3.8657
5039.1,-3.9761,-3.5927
5050.8,-3.8304,-6.3513
5062.5,-8.3918,-3.505
5074.2,-4.1764,-3.4959
5085.9,-5.1993,-5.333
5097.7,-3.8814,-4.734
5109.4,-5.1655,-6.9754
5121.1,-5.7546,-8.4867
5132.8,-4.6338,-6.3012
5144.5,-3.0343,-4.0115
5156.3,-2.6299,-3.3151
5168,-3.2504,-2.0585
5179.7,-2.6237,-3.204
5191.4,-3.8543,-2.2963
5203.1,-4.6795,-4.5448
5214.8,-5.5359,-2.9847
5226.6,-4.1604,-2.6106
5238.3,-6.6444,-5.4711
5250,-7.8943,-4.3798
5261.7,-4.6964,-2.2041
5273.4,-1.1216,-2.3255
5285.2,-1.532,-4.1031
5296.9,-3.136,-4.2873
5308.6,-2.0891,-1.6817
5320.3,-4.1363,-2.8495
5332,-4.7248,-5.5412
5343.8,-6.4479,-3.9536
5355.5,-2.1732,-2.1898
5367.2,-4.3768,-1.7731
5378.9,-4.746,-1.4005
5390.6,-5.8073,-3.0513
5402.3,-5.2571,-8.6148
5414.1,-5.0595,-3.6524
5425.8,-5.2347,-2.3313
5437.5,-5.2662,-1.4474
5449.2,-3.8726,-2.8103
5460.9,-4.2754,-3.7686
5472.7,-7.1765,0.643
5484.4,-7.793,-0.83124
5496.1,-4.9818,-1.1181
5507.8,-5.7483,-0.68614
5519.5,-3.6538,-4.5582
5531.3,-1.7387,-0.23815
5543,-1.1298,1.6412
5554.7,-3.5729,-2.2577
5566.4,-4.151,-1.4148
5578.1,-1.0005,-3.1379
5589.8,-1.0549,-3.3523
5601.6,-2.7501,-4.8566
5613.3,-5.5836,-2.0871
5625,-6.9231,-0.058125
5636.7,-5.5999,-0.34456
5648.4,-5.8881,1.0395
5660.2,-5.5829,-0.92413
5671.9,-3.6217,-1.6459
5683.6,-4.0369,-1.3654
5695.3,-5.6832,-3.4127
5707,-5.8355,-3.1114
5718.8,-3.5084,-2.1547
5730.5,-2.977,-0.54785
5742.2,-5.4861,-0.13554
5753.9,-7.6833,-5.6642
5765.6,-5.7226,-1.9216
5777.3,-5.8856,0.12693
5789.1,-6.5485,1.4452
5800.8,-5.5481,1.4813
5812.5,-3.0923,1.5218
5824.2,-3.4845,0.90313
5835.9,-4.0694,0.26335
5847.7,-4.6561,-1.9799
5859.4,-4.9143,-2.7247
5871.1,-7.2788,-2.4549
5882.8,-8.291,-1.4808
5894.5,-5.1493,-2.1933
5906.3,-0.5803,-2.9111
5918,0.030069,-2.628
5929.7,-1.7015,-1.7129
5941.4,-4.5842,-0.035167
5953.1,-6.8316,-2.2917
5964.8,-2.9645,-2.5452
5976.6,-2.4158,0.65484
5988.3,-1.6352,-1.5069
6000,-2.2647,-2.337
6011.7,-4.2771,-2.3177
6023.4,-4.7073,-3.9344
6035.2,-3.0255,-5.8612
6046.9,-2.7674,-6.3821
6058.6,-1.2481,-3.4437
6070.3,-1.6831,-2.4434
6082,-3.0177,-1.2328
6093.8,-4.8022,-4.2885
6105.5,-3.4667,-5.0768
6117.2,-1.6165,-3.742
6128.9,-1.6173,-1.8525
6140.6,-3.5494,-3.5431
6152.3,-6.97,-3.954
6164.1,-3.9343,-4.1118
6175.8,-2.1842,-3.1651
6187.5,-2.6322,-3.0666
6199.2,2.6819,-4.1984
6210.9,-3.2674,-5.0681
6222.7,-2.3464,-2.1507
6234.4,-0.82952,-3.764
6246.1,-3.5625,-5.8453
6257.8,-2.9167,-5.0013
6269.5,-3.7566,-6.6541
6281.3,-7.1277,-4.294
6293,-6.0241,-2.6464
6304.7,-5.4255,-4.0306
6316.4,-6.3054,-5.5664
6328.1,-6.2719,-6.9754
6339.8,-6.5303,-3.5232
6351.6,-9.1769,-3.1176
6363.3,-7.577,-3.9112
6375,-6.0362,-3.8494
6386.7,-4.1806,-5.0715
6398.4,-2.3162,-4.2247
6410.2,-4.2551,-5.3999
6421.9,-4.3124,-7.4136
6433.6,-3.6287,-4.0639
6445.3,-5.5733,-5.0275
6457,-5.492,-4.3086
6468.8,-3.84,-5.4726
6480.5,-4.3214,-5.6856
6492.2,-4.6283,-1.9327
6503.9,-5.966,-2.1489
6515.6,-3.5814,-3.4733
6527.3,-6.3085,-3.193
6539.1,-8.6495,-2.8092
6550.8,-6.8339,-4.9983
6562.5,-4.2825,-6.1833
6574.2,-6.8634,-5.4669
6585.9,-6.8289,-4.9182
6597.7,-4.1616,-4.2375
6609.4,-4.0085,-4.3856
6621.1,-4.5535,-5.5415
6632.8,-3.2373,-2.3811
6644.5,-5.6637,-2.4406
6656.3,-3.3156,-8.3899
6668,-5.7027,-6.6603
6679.7,-8.302,-4.2506
6691.4,-8.0504,-4.8547
6703.1,-8.9216,-4.5647
6714.8,-9.6143,-4.5176
6726.6,-7.8518,-4.5574
6738.3,-6.8235,-9.246
6750,-8.0178,-3.5198
6761.7,-4.9204,-3.5168
6773.4,-5.4988,-7.2018
6785.2,-7.7884,-8.51
6796.9,-5.8687,-3.9491
6808.6,-6.4974,-3.834
6820.3,-6.8881,-5.1591
6832,-6.6745,-4.8476
6843.8,-4.9738,-7.3791
6855.5,-4.0633,-9.4007
6867.2,-7.0384,-7.6399
6878.9,-12.481,-5.2887
6890.6,-7.5272,-5.1418
6902.3,-7.7786,-5.7978
6914.1,-7.7444,-6.7898
6925.8,-6.6681,-7.1396
6937.5,-6.8981,-8.4479
6949.2,-5.846,-5.8055
6960.9,-7.8908,-7.8489
6972.7,-8.2406,-6.9035
6984.4,-4.1507,-5.3508
6996.1,-4.6933,-5.6366
7007.8,-5.0313,-5.0201
7019.5,-5.1158,-3.3737
7031.3,-6.2464,-5.7282
7043,-8.2941,-5.6036
7054.7,-6.6736,-5.5509
7066.4,-6.6502,-5.1152
7078.1,-8.9805,-6.9433
7089.8,-8.5385,-6.8119
7101.6,-8.2892,-4.3802
7113.3,-7.6303,-4.3977
7125,-7.3516,-6.9746
7136.7,-5.2735,-6.0741
7148.4,-5.195,-6.856
7160.2,-3.2975,-7.9039
7171.9,-5.9682,-6.4603
7183.6,-6.4992,-4.1016
7195.3,-7.1996,-5.8402
7207,-7.077,-8.3497
7218.8,-4.7829,-9.0629
7230.5,-6.146,-8.3621
7242.2,-11.518,-7.6541
7253.9,-9.7555,-6.184
7265.6,-8.139,-6.187
7277.3,-8.5737,-4.8137
7289.1,-6.1011,-4.2132
7300.8,-4.9062,-8.6869
7312.5,-7.8036,-5.3534
7324.2,-7.8423,-7.7913
7335.9,-10.365,-5.6882
7347.7,-8.4521,-5.2658
7359.4,-5.8992,-6.1885
7371.1,-7.2487,-9.494
7382.8,-9.625,-10.288
7394.5,-11.642,-8.8144
7406.3,-11.937,-4.7479
7418,-8.0502,-5.3727
7429.7,-6.4325,-7.7474
7441.4,-5.9309,-6.3774
7453.1,-7.619,-7.8392
7464.8,-5.5014,-8.2404
7476.6,-5.6509,-5.2598
7488.3,-8.8659,-4.6847
7500,-7.8065,-8.8961
7511.7,-8.5976,-6.0909
7523.4,-8.8815,-7.545
7535.2,-9.391,-8.4349
7546.9,-9.6945,-6.8885
7558.6,-7.2092,-6.0245
7570.3,-4.5442,-6.1074
7582,-4.9286,-7.6681
7593.8,-7.8759,-5.9804
7605.5,-8.3022,-8.9726
7617.2,-7.4557,-6.7418
7628.9,-6.9483,-4.534
7640.6,-7.9716,-5.5332
7652.3,-8.9807,-8.217
7664.1,-6.0374,-6.9683
7675.8,-8.6437,-8.3948
7687.5,-7.8822,-5.6429
7699.2,-7.1998,-4.5081
7710.9,-9.9449,-4.1459
7722.7,-10.072,-8.6157
7734.4,-9.2526,-9.589
7746.1,-8.4481,-7.5349
7757.8,-7.8605,-8.9458
7769.5,-8.2715,-6.5848
7781.3,-7.2294,-5.7849
7793,-6.5461,-9.8676
7804.7,-6.0716,-10.426
7816.4,-6.5917,-8.4366
7828.1,-6.3051,-7.8204
7839.8,-7.3007,-8.2915
7851.6,-9.1798,-8.7651
7863.3,-10.685,-9.7602
7875,-11.136,-9.543
7886.7,-7.8873,-10.792
7898.4,-6.9819,-8.0168
7910.2,-8.0718,-8.2837
7921.9,-7.047,-8.0508
7933.6,-3.7109,-6.844
7945.3,-6.7351,-8.0368
7957,-8.988,-6.292
7968.8,-6.1958,-6.6006
7980.5,-6.1372,-8.2419
7992.2,-6.2697,-6.0277
8003.9,-7.1327,-7.8629
8015.6,-6.0329,-10.008
8027.3,-5.9288,-7.8071
8039.1,-8.2684,-8.8483
8050.8,-7.6996,-10.09
8062.5,-9.9227,-10.054
8074.2,-10.242,-10.584
8085.9,-9.7537,-10.038
8097.7,-6.589,-7.417
8109.4,-6.3669,-4.4773
8121.1,-7.8677,-4.3507
8132.8,-6.9287,-6.2688
8144.5,-7.3219,-11.093
8156.3,-8.6609,-11.309
8168,-10.272,-8.9223
8179.7,-11.519,-9.6803
8191.4,-7.3477,-11.406
8203.1,-6.0951,-12.164
8214.8,-8.0795,-11.844
8226.6,-8.5938,-10.02
8238.3,-8.37,-9.2331
8250,-7.442,-9.5363
8261.7,-5.0695,-10.715
8273.4,-7.2676,-10.678
8285.2,-12.906,-8.743
8296.9,-13.755,-9.7006
8308.6,-8.8407,-8.7401
8320.3,-8.0478,-7.7103
8332,-12.001,-7.7528
8343.8,-7.9704,-8.1836
8355.5,-7.0217,-7.1078
8367.2,-7.8149,-8.0059
8378.9,-10.343,-9.8884
8390.6,-7.2151,-8.4535
8402.3,-7.933,-8.4206
8414.1,-9.1465,-8.4391
8425.8,-9.6333,-7.452
8437.5,-9.1625,-6.7783
8449.2,-9.9784,-9.3309
8460.9,-7.6573,-9.1793
8472.7,-8.5151,-6.8141
8484.4,-6.1584,-9.5532
8496.1,-4.6255,-11.245
8507.8,-9.449,-10.213
8519.5,-11.548,-11.957
8531.3,-10.64,-9.6588
8543,-12.134,-9.546
8554.7,-10.814,-7.5827
8566.4,-9.373,-10.009
8578.1,-12.815,-8.7728
8589.8,-8.1552,-8.0846
8601.6,-6.3353,-9.7307
8613.3,-6.7613,-10.232
8625,-7.5851,-9.4564
8636.7,-9.4957,-6.9204
8648.4,-8.8012,-7.699
8660.2,-7.8754,-8.4206
8671.9,-10.097,-8.4291
8683.6,-10.062,-8.2404
8695.3,-8.2059,-6.6151
8707,-9.6176,-8.883
8718.8,-8.5747,-10.751
8730.5,-8.7784,-10.683
8742.2,-8.9752,-9.1494
8753.9,-9.4414,-12.25
8765.6,-7.5706,-8.4149
8777.3,-9.4327,-6.4733
8789.1,-10.76,-8.7411
8800.8,-9.4328,-10.437
8812.5,-8.2264,-10.772
8824.2,-7.384,-9.7776
8835.9,-7.7453,-10.566
8847.7,-7.0845,-9.4022
8859.4,-9.8916,-10.826
8871.1,-15.842,-10.966
8882.8,-12.846,-9.5199
8894.5,-11.352,-9.8544
8906.3,-10.738,-8.7564
8918,-11.018,-8.5011
8929.7,-11.005,-6.951
8941.4,-8.3644,-7.3773
8953.1,-8.1693,-6.8412
8964.8,-11.176,-8.8772
8976.6,-10.764,-9.858
8988.3,-9.9105,-10.59
9000,-9.2466,-10.388
9011.7,-10.703,-9.2138
9023.4,-9.3994,-8.1521
9035.2,-8.0325,-8.2959
9046.9,-9.712,-7.8767
9058.6,-13.422,-8.1724
9070.3,-9.4207,-8.7427
9082,-9.4536,-5.8892
9093.8,-9.9728,-8.2231
9105.5,-12.292,-9.4191
9117.2,-11.786,-8.7218
9128.9,-10.47,-11.387
9140.6,-11.583,-7.2156
9152.3,-12.659,-7.9452
9164.1,-10.753,-11.654
9175.8,-6.683,-10.884
9187.5,-8.6842,-8.7751
9199.2,-8.0364,-8.6054
9210.9,-9.799,-10.254
9222.7,-9.2555,-12.739
9234.4,-8.2124,-15.294
9246.1,-10.486,-11.529
9257.8,-10.859,-10.573
9269.5,-9.4881,-8.8741
9281.3,-9.215,-7.3563
9293,-9.8281,-8.5042
9304.7,-10.806,-7.0948
9316.4,-10.289,-9.7299
9328.1,-8.3421,-14.209
9339.8,-6.9601,-12.079
9351.6,-8.8708,-9.0088
9363.3,-10.998,-7.8701
9375,-10.921,-9.138
9386.7,-8.317,-10.256
9398.4,-8.2665,-8.4256
9410.2,-5.2172,-9.8725
9421.9,-7.462,-9.1941
9433.6,-12.122,-9.439
9445.3,-11.961,-11.676
9457,-12.088,-12.884
9468.8,-11.824,-10.627
9480.5,-10.381,-11.913
9492.2,-10.303,-11.789
9503.9,-12.998,-9.6233
9515.6,-12.304,-10.099
9527.3,-10.149,-11.944
9539.1,-10.118,-10.872
9550.8,-11.166,-10.434
9562.5,-10.974,-12.194
9574.2,-9.0889,-13.628
9585.9,-9.7888,-9.7721
9597.7,-9.7223,-8.6533
9609.4,-7.3311,-10.058
9621.1,-9.8828,-10.695
9632.8,-10.116,-9.7456
9644.5,-12.029,-9.6779
9656.3,-10.984,-8.758
9668,-8.6953,-9.6588
9679.7,-9.8226,-10.723
9691.4,-9.2148,-11.994
9703.1,-12.511,-12.447
9714.8,-12.028,-11.643
9726.6,-11.835,-10.843
9738.3,-13.73,-11.851
9750,-10.984,-11.166
9761.7,-11.308,-11.111
9773.4,-11.362,-10.972
9785.2,-9.7608,-10.949
9796.9,-12.374,-13.36
9808.6,-9.013,-11.785
9820.3,-9.7455,-10.06
9832,-12.114,-11.224
9843.8,-9.1314,-10.222
9855.5,-9.195,-8.8102
9867.2,-7.1675,-8.4264
9878.9,-7.4274,-12.464
9890.6,-9.9732,-13.081
9902.3,-11.795,-12.663
9914.1,-8.3877,-13.316
9925.8,-8.9109,-12.013
9937.5,-10.496,-11.922
9949.2,-9.1129,-9.503
9960.9,-9.308,-8.7302
9972.7,-10.064,-7.801
9984.4,-15.293,-11.412
9996.1,-12.698,-11.248
10008,-10.544,-11.851
10020,-12,-11.654
10031,-11.026,-10.852
10043,-8.408,-10.803
10055,-7.8662,-9.9413
10066,-9.9979,-12.007
10078,-10.385,-12.144
10090,-9.4603,-12.394
10102,-9.4772,-10.42
10113,-11.735,-9.1843
10125,-10.497,-13.207
10137,-10.319,-14.004
10148,-9.378,-9.2856
10160,-8.5599,-9.0337
10172,-11.023,-9.1972
10184,-13.44,-9.9026
10195,-14.372,-8.1002
10207,-12.199,-9.599
10219,-11.47,-10.793
10230,-12.489,-11.901
10242,-13.39,-14.243
10254,-11.937,-13.599
10266,-10.567,-14.23
10277,-11.443,-12.629
10289,-14.484,-10.634
10301,-13.968,-8.3763
10313,-14.489,-8.7553
10324,-11.503,-9.7578
10336,-9.2345,-9.7955
10348,-8.7362,-10.711
10359,-9.5802,-11.306
10371,-9.878,-13.059
10383,-11.05,-13.018
10395,-13.295,-10.856
10406,-12.198,-10.313
10418,-10.807,-10.49
10430,-10.386,-10.209
10441,-11.28,-11.397
10453,-9.7106,-12.671
10465,-10.457,-10.069
10477,-10.381,-10.275
10488,-11.146,-12.027
10500,-7.7759,-12.741
10512,-8.5452,-12.217
10523,-12.629,-11.32
10535,-10.804,-12.962
10547,-8.8507,-11.331
10559,-10.617,-9.6387
10570,-11.425,-9.1925
10582,-11.387,-12.161
10594,-11.98,-10.4
10605,-12.029,-10.947
10617,-9.1329,-16.522
10629,-8.8329,-14.025
10641,-9.2004,-12.38
10652,-10.918,-14.168
10664,-8.8208,-14.005
10676,-11.088,-13.511
10688,-10.327,-13.005
10699,-10.444,-11.596
10711,-12.378,-11.702
10723,-12.967,-13.605
10734,-11.973,-10.59
10746,-11.693,-9.9866
10758,-10.859,-12.142
10770,-9.0817,-13.805
10781,-5.1028,-11.77
10793,-4.75,-13.162
10805,-12.704,-14.527
10816,-12.73,-14.552
10828,-13.122,-14.456
10840,-12.912,-10.153
10852,-13.884,-13.203
10863,-11.842,-15.269
10875,-9.6174,-14.316
10887,-8.9362,-13.286
10898,-9.2414,-15.04
10910,-12.291,-14.583
10922,-9.0345,-11.803
10934,-9.7056,-12.16
10945,-10.671,-13.32
10957,-10.362,-12.598
10969,-9.7862,-11.285
10980,-9.7617,-13.183
10992,-10.33,-13.157
11004,-11.744,-12.521
11016,-10.582,-12.762
11027,-13.388,-13.723
11039,-11.798,-13.859
11051,-11.733,-11.072
11063,-9.6191,-11.549
11074,-7.6582,-12.387
11086,-11.146,-12.175
11098,-11.536,-14.823
11109,-10.498,-12.455
11121,-9.1836,-14.616
11133,-12.178,-12.009
11145,-11.51,-12.692
11156,-10.488,-12.525
11168,-8.5885,-12.538
11180,-5.8675,-16.154
11191,-8.7991,-11.679
11203,-14.612,-12.109
11215,-10.876,-12.997
11227,-7.8287,-14.487
11238,-5.4929,-10.432
11250,-2.9892,-8.7441
11262,-7.5931,-12.621
11273,-11.004,-13.753
11285,-9.7649,-13.305
11297,-8.6512,-13.574
11309,-8.7851,-12.809
11320,-10.527,-15.062
11332,-12.128,-14.456
11344,-12.806,-12.121
11355,-10.229,-10.338
11367,-11.401,-12.89
11379,-13.18,-13.203
11391,-10.692,-12.934
11402,-10.037,-13.583
11414,-9.2909,-16.045
11426,-7.4577,-11.992
11438,-6.6704,-9.9978
11449,-13.756,-13.57
11461,-9.3252,-12.911
11473,-10.195,-13.784
11484,-9.9986,-15.858
11496,-11.744,-13.917
11508,-12.43,-14.041
11520,-8.5091,-14.811
11531,-8.436,-13.719
11543,-8.5374,-15.024
11555,-8.0015,-15.16
11566,-8.466,-12.714
11578,-7.8111,-11.959
11590,-7.9031,-12.658
11602,-9.8222,-13.802
11613,-10.437,-13.558
11625,-8.9449,-11.474
11637,-8.703,-14.835
11648,-10.835,-15.279
11660,-11.61,-13.144
11672,-9.8768,-14.468
11684,-9.8526,-16.765
11695,-8.8569,-13.011
11707,-4.6037,-13.127
11719,-8.1433,-11.084
11730,-11.372,-11.246
11742,-10.519,-14.738
11754,-7.146,-15.189
11766,-8.8677,-14.408
11777,-9.2777,-13.142
11789,-12.931,-13.293
11801,-9.516,-11.681
11813,-10.08,-9.964
11824,-9.2086,-12.365
11836,-11.686,-12.851
11848,-14.704,-13.901
11859,-12.306,-13.247
11871,-11.05,-14.803
11883,-11.851,-15.334
11895,-11.912,-11.929
11906,-10.561,-12.285
11918,-10.104,-12.925
11930,-9.6959,-12.827
11941,-10.077,-11.185
11953,-10.163,-10.586
11965,-9.2829,-15.761
11977,-12.722,-12.307
11988,-11.125,-15.466
12000,-10.232,-12.334
12012,-9.3893,-12.894
12023,-6.2457,-15.302
12035,-7.8056,-13.345
12047,-10.746,-12.501
12059,-9.1855,-13.853
12070,-7.39,-14.997
12082,-8.0042,-14.584
12094,-11.181,-12.562
12105,-12.133,-13.465
12117,-12.23,-13.926
12129,-11.477,-14.439
12141,-11.722,-13.24
12152,-10.738,-14.695
12164,-9.2041,-13.591
12176,-9.7056,-13.42
12188,-10.107,-14.083
12199,-9.9343,-14.914
12211,-8.8943,-12.295
12223,-8.7808,-11.08
12234,-9.3802,-13.815
12246,-11.122,-12.186
12258,-10.371,-10.513
12270,-9.6261,-11.388
12281,-8.7446,-10.53
12293,-8.9592,-11.207
12305,-8.3569,-12.539
12316,-12.003,-15.28
12328,-10.983,-19.658
12340,-11.339,-14.286
12352,-11.593,-9.4019
12363,-8.2189,-10.698
12375,-9.1227,-14.848
12387,-11.896,-14.641
12398,-12.652,-16.721
12410,-11.33,-14.806
12422,-9.9828,-12.7
12434,-9.4319,-14.031
12445,-7.9735,-16.303
12457,-8.4075,-13.171
12469,-12.095,-12
12480,-12.173,-14.448
12492,-12.362,-14.083
12504,-12.85,-16.524
12516,-10.434,-17.505
12527,-10.979,-17.205
12539,-11.933,-17.292
12551,-11.164,-17.2
12563,-10.556,-15.976
12574,-8.8757,-16.86
12586,-5.8281,-15.205
12598,-4.14,-12.135
12609,-6.8496,-15.279
12621,-8.5087,-16.001
12633,-8.8315,-14.415
12645,-6.6002,-16.201
12656,-5.4324,-14.953
12668,-9.1104,-14.906
12680,-8.1968,-15.123
12691,-9.0408,-12.435
12703,-9.6211,-11.885
12715,-11.373,-10.405
12727,-12.642,-15.415
12738,-10.424,-17.111
12750,-8.8159,-11.86
12762,-10.395,-10.734
12773,-11.841,-13.2
12785,-10.086,-16.96
12797,-8.6495,-17.073
12809,-8.7763,-13.873
12820,-10.982,-14.414
12832,-10.691,-14.083
12844,-10.745,-14.765
12855,-10.945,-12.42
12867,-9.306,-12.013
12879,-7.4336,-14.028
12891,-8.2738,-15.96
12902,-10.773,-16.295
12914,-11.233,-12.77
12926,-9.3887,-11.212
12938,-10.084,-13.39
12949,-12.1,-13.089
12961,-12.682,-12.627
12973,-13.463,-12.038
12984,-12.735,-13.595
12996,-10.107,-13.428
13008,-12.129,-13.077
13020,-11.888,-14.332
13031,-11.394,-15.772
13043,-11.223,-14.156
13055,-11.647,-14.97
13066,-12.294,-15.33
13078,-9.0579,-13.337
13090,-8.6773,-12.438
13102,-12.977,-12.759
13113,-10.811,-14.824
13125,-12.131,-15.505
13137,-12.871,-13.981
13148,-10.748,-14.686
13160,-12.971,-15.255
13172,-11.25,-16.18
13184,-10.395,-13.767
13195,-11.496,-12.78
13207,-14.559,-14.798
13219,-11.955,-12.959
13230,-9.1551,-12.965
13242,-9.5428,-14.144
13254,-10.27,-14.033
13266,-12.205,-13.52
13277,-14.042,-13.598
13289,-13.331,-14.811
13301,-12.075,-16.087
13313,-10.109,-15.025
13324,-11.421,-14.36
13336,-11.629,-15.181
13348,-12.152,-12.288
13359,-12.864,-14.002
13371,-13.273,-14.124
13383,-13.163,-14.957
13395,-13.064,-13.403
13406,-13.313,-14.058
13418,-13.24,-16.351
13430,-12.708,-13.146
13441,-10.416,-11.348
13453,-11.632,-11.718
13465,-12.996,-14.158
13477,-10.188,-15.449
13488,-9.9798,-14.431
13500,-12.048,-16.202
13512,-14,-19.12
13523,-11.835,-18.056
13535,-7.6514,-16.864
13547,-9.9722,-15.459
13559,-9.1384,-12.166
13570,-10.184,-12.509
13582,-13.839,-15.468
13594,-15.816,-17.447
13605,-17.857,-15.144
13617,-14.544,-16.491
13629,-13.617,-14.382
13641,-15.154,-13.558
13652,-15.522,-11.016
13664,-14.519,-12.161
13676,-13.245,-17.198
13688,-11.671,-14.589
13699,-14.434,-14.747
13711,-14.318,-15.548
13723,-13.82,-15.72
13734,-14.67,-15.559
13746,-14.336,-14.934
13758,-13.54,-14.587
13770,-11.731,-15.43
13781,-11.28,-14.903
13793,-11.811,-15.99
13805,-10.866,-13.546
13816,-11.942,-12.982
13828,-13.74,-15.928
13840,-11.183,-14.171
13852,-9.2229,-12.482
13863,-12.27,-12.405
13875,-15.182,-12.233
13887,-16.101,-15.999
13898,-15.467,-15.621
13910,-13.956,-13.866
13922,-12.405,-14.84
13934,-12.577,-17.26
13945,-12.095,-18.455
13957,-12.931,-14.824
13969,-12.852,-12.838
13980,-12.798,-15.535
13992,-10.738,-16.724
14004,-10.263,-16.042
14016,-12.605,-15.43
14027,-14.163,-13.398
14039,-14.662,-12.837
14051,-13.984,-11.909
14063,-14.071,-13.245
14074,-15.353,-16.67
14086,-16.036,-14.282
14098,-14.381,-14.647
14109,-15.999,-14.149
14121,-15.152,-16.896
14133,-14.231,-15.552
14145,-14.684,-12.946
14156,-13.319,-14.21
14168,-13.127,-16.19
14180,-14.909,-15.087
14191,-15.759,-15.528
14203,-17.33,-17.081
14215,-16.979,-16.084
14227,-12.772,-14.939
14238,-13.871,-17.709
14250,-15.536,-19.038
14262,-13.425,-19.094
14273,-16.842,-15.842
14285,-15.564,-16.176
14297,-14.44,-14.604
14309,-13.863,-13.411
14320,-12.967,-16.522
14332,-13.384,-14.19
14344,-13.729,-13.823
14355,-13.566,-15.31
14367,-10.196,-13.957
14379,-12.326,-15.987
14391,-13.114,-15.602
14402,-14.108,-16.673
14414,-15.925,-14.578
14426,-12.32,-15.682
14438,-13.663,-18.086
14449,-17.168,-16.56
14461,-15.842,-17.314
14473,-14.061,-16.056
14484,-14.154,-14.117
14496,-15.94,-16.582
14508,-15.272,-16.318
14520,-16.219,-18.645
14531,-14.014,-17.504
14543,-13.524,-17.092
14555,-19.12,-20.646
14566,-13.995,-16.278
14578,-14.732,-16.853
14590,-14.571,-18.508
14602,-14.415,-18.42
14613,-16.515,-14.448
14625,-17.725,-14.573
14637,-16.088,-17.853
14648,-15.199,-16.827
14660,-16.338,-17.961
14672,-14.292,-18.538
14684,-14.361,-16.299
14695,-15.142,-17.612
14707,-17.835,-16.814
14719,-17.559,-15.624
14730,-13.876,-16.566
14742,-12.901,-14.936
14754,-15.251,-15.773
14766,-15.094,-14.835
14777,-15.869,-13.846
14789,-15.554,-15.746
14801,-15.862,-18.111
14813,-14.743,-15.896
14824,-12.252,-16.647
14836,-14.732,-16.484
14848,-17.304,-14.277
14859,-13.825,-14.862
14871,-11.263,-15.75
14883,-11.701,-15.162
14895,-14.809,-16.999
14906,-15.275,-16.362
14918,-10.3,-15.445
14930,-10.816,-14.864
14941,-16.356,-14.866
14953,-18.202,-13.204
14965,-16.124,-12.454
14977,-15.426,-16.606
14988,-12.442,-21.52
15000,-12.672,-16.331
15012,-15.161,-15.163
15023,-15.752,-18.367
15035,-13.867,-17.539
15047,-14.13,-16.775
15059,-15.481,-15.312
15070,-16.559,-16.319
15082,-14.52,-16.085
15094,-15.591,-16.911
15105,-15.511,-15.319
15117,-14.34,-22.142
15129,-16.04,-17.948
15141,-13.964,-18.931
15152,-14.371,-17.878
15164,-15.026,-15.076
15176,-14.363,-17.697
15188,-13.08,-18.57
15199,-13.978,-17.859
15211,-14.954,-16.989
15223,-16.134,-19.175
15234,-17.425,-18.497
15246,-15.894,-16.737
15258,-16.961,-15.744
15270,-15.9,-18.649
15281,-12.619,-19.584
15293,-16.18,-18.106
15305,-13.189,-16.103
15316,-13.443,-14.789
15328,-16.253,-18.06
15340,-17.557,-18.927
15352,-14.68,-16.652
15363,-13.217,-17.431
15375,-11.169,-21.278
15387,-12.001,-22.707
15398,-16.936,-19.894
15410,-19.453,-20.518
15422,-18.48,-18.009
15434,-15.289,-17.309
15445,-11.443,-18.733
15457,-12.57,-17.893
15469,-14.478,-17.113
15480,-11.526,-17.25
15492,-12.485,-14.729
15504,-12.637,-13.465
15516,-11.179,-14.375
15527,-15.678,-17.739
15539,-16.223,-19.699
15551,-17.715,-21.614
15563,-19.565,-18.311
15574,-17.806,-14.274
15586,-15.949,-15.326
15598,-13.668,-17.672
15609,-14.966,-17.04
15621,-15.813,-16.846
15633,-17.579,-17.195
15645,-19.156,-18.048
15656,-17.585,-17.634
15668,-15.021,-19.115
15680,-14.103,-19.448
15691,-16.139,-18.415
15703,-17.72,-20.53
15715,-16.257,-17.638
15727,-17.178,-16.047
15738,-17.007,-15.44
15750,-18.898,-14.719
15762,-16.017,-13.755
15773,-16.907,-17.602
15785,-18.312,-18.835
15797,-17.691,-18.06
15809,-14.856,-19.137
15820,-15.596,-19.326
15832,-11.966,-19.687
15844,-9.8595,-19.937
15855,-14.017,-20.811
15867,-13.31,-18.609
15879,-14.77,-18.223
15891,-17.976,-17.097
15902,-16.578,-15.247
15914,-17.661,-15.617
15926,-16.496,-18.454
15938,-15.61,-20.115
15949,-15.566,-17.204
15961,-15.407,-17.29
15973,-16.698,-19.99
15984,-16.923,-19.982
15996,-17.07,-20.746
16008,-14.486,-14.655
16020,-14.367,-16.585
16031,-15.442,-18.855
16043,-16.87,-19.108
16055,-18.359,-16.62
16066,-18.183,-16.19
16078,-19.811,-17.17
16090,-20.43,-16.574
16102,-17.18,-16.24
16113,-16.229,-18.611
16125,-18.255,-17.258
16137,-17.136,-17.028
16148,-13.655,-18.28
16160,-15.727,-15.756
16172,-20.077,-17.307
16184,-19.005,-19.154
16195,-17.446,-19.061
16207,-15.99,-16.929
16219,-15.189,-20.17
16230,-16.938,-19.296
16242,-17.413,-17.162
16254,-17.242,-17.302
16266,-19.967,-17.46
16277,-17.402,-19.095
16289,-15.002,-18.661
16301,-16.059,-19.197
16313,-17.907,-22.039
16324,-17.8,-19.109
16336,-16.01,-17.773
16348,-16.116,-21.789
16359,-14.977,-21.199
16371,-15.004,-20.138
16383,-16.218,-19.479
16395,-17.942,-16.579
16406,-17.76,-18.332
16418,-16.161,-20.348
16430,-17.003,-17.488
16441,-19.769,-20.021
16453,-20.229,-17.841
16465,-17.911,-16.364
16477,-17.081,-17.451
16488,-18.861,-17.721
16500,-18.482,-20.668
16512,-16.44,-19.745
16523,-16.239,-21.064
16535,-17.91,-18.992
16547,-17.901,-20.028
16559,-19.77,-20.232
16570,-19.259,-20.39
16582,-15.862,-20.853
16594,-15.543,-19.326
16605,-17.291,-18.332
16617,-18.515,-17.507
16629,-19.583,-18.887
16641,-18.073,-20.866
16652,-16.767,-20.947
16664,-17.919,-18.088
16676,-20.562,-16.486
16688,-22.635,-17.264
16699,-20.573,-21.593
16711,-18.783,-23.38
16723,-17.692,-21.774
16734,-18.566,-23.211
16746,-17.437,-21.191
16758,-16.832,-20.254
16770,-18.447,-19.738
16781,-17.521,-19.902
16793,-17.298,-21.126
16805,-17.613,-18.336
16816,-17.775,-19.521
16828,-18.463,-16.98
16840,-20.11,-21.194
16852,-20.388,-20.343
16863,-18.52,-19.755
16875,-18.364,-20.731
16887,-19.142,-20.048
16898,-19.655,-20.904
16910,-20.303,-20.799
16922,-21.135,-21.334
16934,-19.363,-21.07
16945,-19.441,-19.699
16957,-19.337,-20.059
16969,-18.289,-22.141
16980,-17.679,-20.869
16992,-17.476,-19.544
17004,-19.446,-22.823
17016,-22.077,-20.933
17027,-20.58,-19.589
17039,-17.379,-20.226
17051,-16.089,-20.444
17063,-20.512,-20.944
17074,-20.539,-25.669
17086,-19.827,-21.489
17098,-18.146,-20.099
17109,-19.26,-21.409
17121,-22.45,-22.161
17133,-20.671,-21.548
17145,-20.018,-23.064
17156,-23.136,-20.235
17168,-23.82,-19.135
17180,-21.435,-19.819
17191,-18.57,-20.138
17203,-20.543,-22.586
17215,-21.273,-19.196
17227,-22.708,-23.398
17238,-22.302,-25.51
17250,-22.461,-22.151
17262,-22.147,-20.398
17273,-20.945,-21.531
17285,-20.483,-21.432
17297,-17.947,-22.892
17309,-18.532,-22.22
17320,-19.839,-20.74
17332,-22.209,-24.619
17344,-19.942,-25.551
17355,-19.154,-22.637
17367,-20.862,-22.536
17379,-22.068,-23.303
17391,-22.44,-24.23
17402,-20.101,-23.482
17414,-20.648,-21.405
17426,-22.628,-19.529
17438,-22.529,-18.477
17449,-21.759,-21.41
17461,-20.534,-24.05
17473,-20.89,-21.311
17484,-19.098,-19.315
17496,-19.234,-17.91
17508,-18.233,-18.902
17520,-21.799,-22.824
17531,-20.679,-24.112
17543,-21.423,-23.294
17555,-20.146,-18.708
17566,-20.421,-19.663
17578,-18.564,-21.917
17590,-19.426,-20.792
17602,-22.508,-17.876
17613,-22.221,-18.419
17625,-21.378,-21.587
17637,-21.025,-22.47
17648,-19.358,-17.371
17660,-19.344,-21.537
17672,-19.546,-25.449
17684,-23.55,-22.26
17695,-22.819,-21.633
17707,-20.91,-22.952
17719,-22.05,-23.94
17730,-20.584,-24.357
17742,-18.768,-19.725
17754,-19.713,-21.285
17766,-21.867,-20.832
17777,-21.613,-20.258
17789,-20.787,-19.057
17801,-19.261,-18.347
17813,-25.28,-20.345
17824,-24.12,-17.353
17836,-24.5,-19.408
17848,-25.392,-19.84
17859,-25.372,-22.315
17871,-24.263,-24.585
17883,-23.75,-19.998
17895,-22.454,-22.077
17906,-23.549,-20.184
17918,-25.785,-21.584
17930,-23.086,-22.782
17941,-21.435,-23.297
17953,-20.792,-20.462
17965,-23.595,-22.381
17977,-23.465,-23.228
17988,-20.097,-19.347
18000,-18.858,-20.75
18012,-22.964,-22.034
18023,-21.123,-21.392
18035,-21.921,-23.114
18047,-21.831,-23.439
18059,-20.251,-23.058
18070,-20.902,-22.641
18082,-21.771,-19.899
18094,-20.91,-19.798
18105,-21.958,-21.471
18117,-23.737,-24.264
18129,-20.507,-25.114
18141,-20.403,-21.298
18152,-22.082,-21.322
18164,-21.87,-23.493
18176,-19.555,-22.108
18188,-18.47,-20.004
18199,-20.145,-20.107
18211,-26.017,-21.439
18223,-21.414,-22.728
18234,-21.765,-23.245
18246,-23.959,-23.709
18258,-24.288,-24.702
18270,-24.318,-22.516
18281,-22.176,-20.924
18293,-19.038,-22.775
18305,-19.402,-23.748
18316,-20.643,-23.801
18328,-20.158,-24.69
18340,-22.058,-21.125
18352,-23.41,-22.027
18363,-22.843,-20.27
18375,-23.627,-20.676
18387,-22.961,-23.558
18398,-20.151,-22.483
18410,-18.427,-23.5
18422,-20.408,-22.499
18434,-22.559,-20.808
18445,-19.267,-20.098
18457,-19.109,-19.057
18469,-23.877,-21.422
18480,-22.266,-24.242
18492,-22.134,-25.033
18504,-21.86,-23.21
18516,-22.461,-22.074
18527,-21.85,-25.095
18539,-23.821,-20.972
18551,-21.73,-23.906
18563,-22.961,-25.485
18574,-25.277,-21.218
18586,-25.095,-19.757
18598,-22.507,-21.03
18609,-21.49,-21.77
18621,-20.068,-20.495
18633,-20.654,-22.669
18645,-21.966,-24.253
18656,-23.088,-21.191
18668,-21.684,-18.342
18680,-21.099,-19.015
18691,-21.448,-20.725
18703,-22.39,-20.977
18715,-24.269,-24.391
18727,-23.166,-23.091
18738,-22.626,-23.886
18750,-21.527,-21.588
18762,-27.321,-18.49
18773,-26.358,-21.008
18785,-25.692,-25.09
18797,-25.114,-24.792
18809,-24.103,-25.06
18820,-24.103,-24.449
18832,-22.512,-21.454
18844,-22.998,-20.734
18855,-22.399,-21.789
18867,-22.233,-22.856
18879,-24.06,-26.363
18891,-21.604,-25.178
18902,-21.416,-27.059
18914,-21.814,-23.395
18926,-21.762,-21.129
18938,-21.494,-21.301
18949,-20.627,-19.651
18961,-20.868,-20.458
18973,-20.902,-22.107
18984,-23.236,-22.882
18996,-22.678,-20.583
19008,-23.02,-20.044
19020,-26.126,-21.58
19031,-23.359,-24.599
19043,-18.808,-23.355
19055,-16.302,-25.361
19066,-19.35,-24.595
19078,-21.524,-23.768
19090,-22.598,-24.718
19102,-24.752,-26.69
19113,-23.879,-22.89
19125,-24.567,-19.389
19137,-29.621,-18.661
19148,-22.174,-19.981
19160,-19.936,-23.473
19172,-23.674,-20.794
19184,-23.196,-21.886
19195,-22.484,-25.236
19207,-23.058,-24.195
19219,-22.029,-22.73
19230,-21.159,-23.228
19242,-23.557,-21.316
19254,-23.002,-23.249
19266,-24.075,-23.421
19277,-23.971,-21.328
19289,-23.219,-23.243
19301,-21.291,-26.11
19313,-20.762,-25.374
19324,-24.059,-25.236
19336,-21.598,-24.044
19348,-21.35,-21.981
19359,-20.441,-20.921
19371,-19.415,-23.337
19383,-23.182,-21.915
19395,-27.929,-20.307
19406,-19.118,-20.285
19418,-17.463,-20.764
19430,-21.164,-20.528
19441,-23.215,-21.652
19453,-24.869,-25.7
19465,-24.976,-25.052
19477,-24.266,-23.449
19488,-26.763,-20.317
19500,-19.97,-21.197
19512,-18.256,-23.481
19523,-17.279,-24.75
19535,-18.825,-25.466
19547,-23.29,-24.17
19559,-20.495,-22.923
19570,-21.177,-23.966
19582,-21.008,-25.797
19594,-21.113,-26.856
19605,-21.154,-26.384
19617,-24.162,-21.076
19629,-25.517,-22.53
19641,-22.12,-21.985
19652,-22.338,-20.949
19664,-24.956,-22.94
19676,-21.356,-24.609
19688,-20.75,-25.354
19699,-21.454,-25.02
19711,-23.09,-22.241
19723,-21.611,-22.514
19734,-21.865,-24.204
19746,-22.824,-25.598
19758,-21.369,-24.503
19770,-20.684,-22.733
19781,-20.184,-24.257
19793,-18.838,-23.972
19805,-18.645,-24.716
19816,-20.795,-26.048
19828,-24.239,-23.343
19840,-23.111,-22.84
19852,-23.027,-22.032
19863,-21.862,-21.11
19875,-20.277,-22.288
19887,-21.109,-23.676
19898,-19.413,-23.711
19910,-20.511,-21.187
19922,-22.154,-24.119
19934,-18.908,-23.178
19945,-21.346,-24.696
19957,-20.274,-23.027
19969,-18.28,-21.836
19980,-20.592,-21.277
19992,-21.998,-20.233
20004,-21.664,-20.019
20016,-21.865,-22.331
20027,-21.369,-24.28
20039,-21.525,-22.334
20051,-22.975,-24.128
20063,-24.609,-25.973
20074,-22.558,-25.792
20086,-21.807,-22.918
20098,-21.992,-22.861
20109,-22.259,-24.822
20121,-21.72,-25.924
20133,-23.838,-26.055
20145,-24.338,-25.208
20156,-23.183,-23.446
20168,-21.63,-23.911
20180,-21.539,-24.915
20191,-22.866,-25.655
20203,-22.758,-23.738
20215,-22.469,-23.354
20227,-22.472,-23.072
20238,-23.28,-21.012
20250,-20.405,-21.371
20262,-20.459,-23.975
20273,-25.336,-25.068
20285,-22.33,-24.58
20297,-22.635,-25.224
20309,-20.612,-23.58
20320,-21.637,-24.958
20332,-21.195,-23.063
20344,-22.215,-21.354
20355,-22.046,-24.553
20367,-22.509,-24.381
20379,-21.797,-23.087
20391,-19.781,-22.542
20402,-20.603,-23.973
20414,-22.974,-26.759
20426,-18.69,-23.9
20438,-21.47,-24.463
20449,-22.521,-24.874
20461,-21.997,-21.889
20473,-24.562,-22.37
20484,-23.05,-24.314
20496,-20.689,-24.272
20508,-22.593,-22.356
20520,-23.461,-26.065
20531,-19.874,-24.298
20543,-21.879,-28.059
20555,-22.395,-27.515
20566,-22.977,-29.307
20578,-24.136,-23.581
20590,-24.698,-21.186
20602,-22.813,-24.449
20613,-21.416,-25.548
20625,-21.492,-24.778
20637,-21.983,-27.963
20648,-21.98,-21.361
20660,-22.228,-19.749
20672,-20.801,-21.312
20684,-21.051,-26.096
20695,-20.66,-27.194
20707,-22.52,-25.297
20719,-24.665,-28.069
20730,-25.748,-26.503
20742,-24.811,-28.424
20754,-21.709,-28.016
20766,-21.223,-28.839
20777,-21.292,-26.601
20789,-23.451,-25.858
20801,-25.834,-26.786
20813,-26.847,-28.189
20824,-24.821,-27.417
20836,-21.702,-27.054
20848,-18.965,-28.964
20859,-22.763,-29.688
20871,-19.955,-23.423
20883,-18.193,-22.012
20895,-17.801,-24.99
20906,-21.329,-28.217
20918,-25.522,-27.395
20930,-21.449,-24.757
20941,-23.092,-24.473
20953,-22.383,-24.525
20965,-22.799,-27.542
20977,-22.824,-24.874
20988,-22.969,-25.919
21000,-23.297,-23.187
21012,-22.836,-24.359
21023,-24.201,-23.36
21035,-20.469,-24.773
21047,-19.589,-26.789
21059,-25.581,-27.714
21070,-23.117,-26.344
21082,-22.078,-23.396
21094,-23.043,-21.234
21105,-26.297,-23.297
21117,-21.991,-28.578
21129,-21.007,-27.876
21141,-25.619,-27.064
21152,-26.223,-25.772
21164,-23.408,-27.401
21176,-21.439,-27.921
21188,-22.381,-27.438
21199,-25.432,-25.892
21211,-22.957,-25.078
21223,-23.412,-24.275
21234,-24.989,-25.226
21246,-23.615,-27.841
21258,-25.061,-30.61
21270,-23.591,-28.506
21281,-21.043,-25.796
21293,-22.856,-26.182
21305,-22.944,-23.304
21316,-23.125,-24.632
21328,-24.242,-27.876
21340,-25.638,-25.184
21352,-26.131,-25.784
21363,-25.336,-25.218
21375,-26.651,-25.06
21387,-26.278,-26.892
21398,-22.685,-26.331
21410,-24.681,-25.891
21422,-24.971,-26.722
21434,-23.874,-28.163
21445,-22.102,-27.661
21457,-20.993,-28.446
21469,-25.273,-28.063
21480,-25.774,-25.121
21492,-24.75,-25.041
21504,-21.851,-26.573
21516,-21.042,-25.472
21527,-22.828,-28.45
21539,-22.926,-29.066
21551,-24.009,-27.22
21563,-23.411,-24.758
21574,-24.221,-26.982
21586,-28.029,-29.85
21598,-26.424,-30.877
21609,-27.31,-28.779
21621,-23.777,-26.715
21633,-22.08,-26.539
21645,-25.487,-26.662
21656,-24.473,-26.627
21668,-27.344,-28.702
21680,-24.249,-27.599
21691,-24.108,-26.608
21703,-22.883,-25.505
21715,-23.365,-22.597
21727,-24.232,-26.624
21738,-27.697,-26.108
21750,-25.246,-26.531
21762,-26.192,-26.176
21773,-25.101,-26.273
21785,-27.109,-23.422
21797,-25.27,-23.866
21809,-21.884,-26.215
21820,-22.726,-27.571
21832,-25.783,-27.349
21844,-26.714,-27.897
21855,-23.169,-28.859
21867,-22.664,-26.204
21879,-24.106,-25.532
21891,-26.543,-29.339
21902,-25.78,-30.661
21914,-26.476,-28.009
21926,-27.69,-23.893
21938,-28.334,-23.908
21949,-25.319,-26.501
21961,-22.71,-27.883
21973,-23.027,-26.99
21984,-22.634,-26.67
21996,-23.28,-24.651
22008,-22.842,-25.538
22020,-24.056,-28.458
22031,-24.385,-25.857
22043,-24.363,-26.301
22055,-23.556,-25.253
22066,-25.319,-23.889
22078,-24.802,-26.958
22090,-23.329,-27.591
22102,-20.631,-28.289
22113,-22,-29.131
22125,-26.069,-28.332
22137,-25.214,-25.155
22148,-23.071,-26.285
22160,-22.95,-31.55
22172,-23.549,-28.088
22184,-26.566,-28.623
22195,-24.689,-23.383
22207,-23.229,-26.715
22219,-26.511,-29.149
22230,-30.303,-28.975
22242,-24.749,-26.666
22254,-22.157,-29.306
22266,-20.698,-31.606
22277,-22.179,-27.62
22289,-25.71,-27.664
22301,-27.132,-29.335
22313,-25.239,-29.205
22324,-24.991,-28.432
22336,-23.545,-26.8
22348,-23.67,-27.351
22359,-26.14,-26.64
22371,-26.691,-27.389
22383,-26.784,-29.745
22395,-25.515,-28.082
22406,-25.744,-25.707
22418,-27.268,-28.758
22430,-25.94,-27.147
22441,-26.458,-25.553
22453,-26.779,-30.338
22465,-25.825,-27.092
22477,-24.866,-28.182
22488,-25.621,-27.892
22500,-25.916,-29.348
22512,-26.126,-25.779
22523,-26.088,-28.202
22535,-25.407,-28.912
22547,-26.482,-27.509
22559,-28.532,-29.925
22570,-28.551,-28.563
22582,-28.072,-26.484
22594,-27.75,-26.853
22605,-28.756,-26.23
22617,-29.952,-27.27
22629,-27.812,-29.323
22641,-26.693,-30.38
22652,-24.866,-30.995
22664,-24.417,-29.741
22676,-24.641,-29.32
22688,-27.448,-29.762
22699,-29.134,-26.132
22711,-28.422,-25.808
22723,-26.786,-28.011
22734,-24.744,-31.785
22746,-26.03,-29.653
22758,-25.913,-26.735
22770,-25.14,-27.604
22781,-26.155,-28.189
22793,-26.146,-28.287
22805,-28.279,-27.893
22816,-29.094,-24.597
22828,-27.485,-27.993
22840,-27.293,-31.672
22852,-27.661,-28.74
22863,-23.886,-26.215
22875,-25.413,-26.92
22887,-27.566,-27.772
22898,-28.06,-27.631
22910,-27.499,-26.412
22922,-25.379,-25.111
22934,-26.224,-27.006
22945,-27.673,-31.185
22957,-29.043,-31.224
22969,-26.496,-29.979
22980,-26.545,-26.834
22992,-28.737,-27.132
23004,-24.795,-28.376
23016,-25.949,-28.265
23027,-25.753,-27.654
23039,-24.476,-28.589
23051,-26.436,-28.056
23063,-29.444,-28.441
23074,-28.425,-30.935
23086,-24.907,-31.876
23098,-26.934,-28.248
23109,-27.599,-28.285
23121,-27.132,-26.806
23133,-28.958,-29.033
23145,-28.48,-27.168
23156,-26.893,-27.602
23168,-24.275,-28.183
23180,-24.299,-25.965
23191,-24.139,-25.977
23203,-25.707,-26.435
23215,-27.74,-27.981
23227,-29.134,-31.03
23238,-27.995,-33.112
23250,-29.338,-30.617
23262,-29.968,-29.167
23273,-28.443,-29.394
23285,-28.545,-30.754
23297,-25.879,-29.975
23309,-26.603,-27.695
23320,-26.819,-28.285
23332,-27.19,-29.889
23344,-28.499,-29.271
23355,-29.387,-28.943
23367,-30.514,-28.12
23379,-29.393,-31.535
23391,-28.175,-28.9
23402,-26.996,-29.259
23414,-26.222,-29.288
23426,-26.599,-28.193
23438,-26.64,-28.797
23449,-28.735,-31.348
23461,-29.455,-30.61
23473,-28.775,-26.938
23484,-27.351,-28.246
23496,-31.518,-30.859
23508,-29.204,-30.817
23520,-30.233,-27.064
23531,-32.705,-26.206
23543,-29.767,-26.689
23555,-26.932,-27.823
23566,-25.801,-29.466
23578,-27.009,-28.925
23590,-27.057,-29.466
23602,-26.816,-30.658
23613,-27.865,-29.204
23625,-30.241,-27.074
23637,-26.61,-29.537
23648,-27.281,-30.715
23660,-27.439,-32.415
23672,-25.729,-29.386
23684,-22.498,-29.424
23695,-23.142,-31.153
23707,-25.764,-33.615
23719,-27.375,-26.896
23730,-28.241,-27.025
23742,-26.458,-29.978
23754,-27.332,-28.605
23766,-27.097,-28.662
23777,-26.717,-32.521
23789,-28.145,-33.837
23801,-28.104,-29.372
23813,-26.121,-27.889
23824,-28.854,-28.869
23836,-27.951,-30.221
23848,-29.394,-28.389
23859,-26.979,-28.807
23871,-27.873,-31.338
23883,-26.768,-30.424
23895,-28.315,-30.642
23906,-29.261,-27.944
23918,-28.677,-27.982
23930,-26.293,-29.467
23941,-24.307,-27.939
23953,-25.399,-30.885
23965,-29.032,-28.307
23977,-28.101,-28.337
23988,-27.682,-32.749
