FFT,Power Spectrum
Frequency[Hz],Level-L[dB],Level-R[dB]
11.719,-17.885,-22.46
23.438,1.5833,-2.5608
35.156,-2.3425,-3.1472
46.875,4.4761,1.9822
58.594,9.4485,8.3708
70.313,7.9083,7.158
82.031,6.543,6.7122
93.75,7.0473,5.5308
105.47,6.5323,5.2641
117.19,5.6912,5.9659
128.91,10.923,8.2725
140.63,13.205,9.9507
152.34,11.131,9.0664
164.06,4.8569,7.0286
175.78,7.0838,6.7292
187.5,13.628,10.113
199.22,12.476,9.1918
210.94,10.194,8.5518
222.66,21.378,9.0403
234.38,23.147,7.6987
246.09,13.538,7.2998
257.81,10.497,7.1511
269.53,10.24,7.9639
281.25,7.9066,5.5211
292.97,6.1561,2.4618
304.69,3.8415,4.1565
316.41,1.3784,2.7864
328.13,4.6321,5.3165
339.84,4.9316,6.325
351.56,4.6098,6.0276
363.28,6.4261,5.0956
375,7.6579,2.405
386.72,7.8565,6.6565
398.44,9.1941,7.6314
410.16,6.6785,4.7935
421.88,8.1053,4.4085
433.59,4.2303,3.2613
445.31,5.5124,4.9606
457.03,6.1976,6.133
468.75,5.027,4.3931
480.47,6.2303,5.7347
492.19,7.3195,4.9169
503.91,7.6497,4.1244
515.63,5.5426,7.2274
527.34,5.0537,6.2584
539.06,6.5132,1.5205
550.78,2.4557,5.606
562.5,2.7267,6.6428
574.22,2.1569,8.3193
585.94,6.5053,3.7063
597.66,9.8474,2.5876
609.38,8.8203,5.9979
621.09,6.5085,7.0388
632.81,6.1971,5.395
644.53,4.1907,6.4033
656.25,5.4818,5.1682
667.97,6.1551,3.4975
679.69,9.0578,4.4098
691.41,10.083,4.9378
703.13,6.7838,5.2963
714.84,7.1144,5.648
726.56,6.5327,5.3895
738.28,8.5989,4.6676
750,6.9466,6.453
761.72,4.6876,5.8245
773.44,4.8903,5.1555
785.16,2.2589,3.7583
796.88,4.0029,3.0732
808.59,4.1296,3.3382
820.31,3.8138,4.3425
832.03,0.62125,3.4809
843.75,0.10982,4.6334
855.47,5.0788,4.324
867.19,7.8032,3.0378
878.91,7.0431,3.0122
890.63,8.027,5.16
902.34,9.5581,6.1056
914.06,9.3744,7.1471
925.78,7.555,5.0119
937.5,7.6427,5.764
949.22,4.7517,4.7915
960.94,1.9454,3.1002
972.66,4.448,0.29046
984.38,4.651,2.5681
996.09,5.0356,4.2168
1007.8,6.9276,3.5717
1019.5,4.9906,3.4717
1031.3,3.0397,4.1547
1043,1.3578,2.1048
1054.7,1.8265,0.69569
1066.4,2.9628,2.2431
1078.1,4.5952,2.7496
1089.8,6.9832,3.6416
1101.6,7.4376,4.272
1113.3,4.4245,5.8204
1125,3.0871,4.3017
1136.7,3.438,3.4843
1148.4,4.6517,7.306
1160.2,5.2345,8.1324
1171.9,7.3112,6.749
1183.6,9.3134,5.6947
1195.3,6.337,7.2649
1207,4.1372,5.165
1218.8,8.0074,5.9005
1230.5,7.6308,3.6584
1242.2,5.9607,1.7325
1253.9,7.325,3.9864
1265.6,5.2767,4.6208
1277.3,1.5797,5.7716
1289.1,3.0956,5.8584
1300.8,1.4144,3.1548
1312.5,1.2083,4.971
1324.2,3.3445,5.0065
1335.9,4.3594,4.913
1347.7,3.4505,7.0619
1359.4,3.6781,8.0095
1371.1,1.763,3.2977
1382.8,3.6047,1.9444
1394.5,5.6674,1.2515
1406.3,4.2725,4.6009
1418,4.216,6.9436
1429.7,3.2122,4.523
1441.4,1.9686,2.9484
1453.1,2.1163,3.2455
1464.8,4.2532,2.2193
1476.6,3.7176,3.3065
1488.3,2.9769,5.0643
1500,4.0979,3.5573
1511.7,2.7435,2.5703
1523.4,6.0272,3.9465
1535.2,6.7061,5.3105
1546.9,6.1366,3.0428
1558.6,5.1116,0.93403
1570.3,6.644,1.129
1582,2.3208,1.6242
1593.8,4.8417,2.6348
1605.5,11.06,3.0709
1617.2,7.0676,7.3806
1628.9,2.7384,9.116
1640.6,3.3543,7.6613
1652.3,4.2958,5.6043
1664.1,3.4047,2.4955
1675.8,2.6256,2.0766
1687.5,6.6179,4.6698
1699.2,6.6874,3.4052
1710.9,2.9556,3.56
1722.7,3.748,3.3126
1734.4,3.862,9.415
1746.1,2.723,6.111
1757.8,6.2462,4.8281
1769.5,7.7201,5.8684
1781.3,4.2122,4.3006
1793,4.0173,1.83
1804.7,3.0056,-0.60822
1816.4,1.6109,2.6689
1828.1,1.081,3.8063
1839.8,3.7502,0.87293
1851.6,4.7146,3.7185
1863.3,4.8661,0.84884
1875,2.1895,0.82213
1886.7,0.42064,1.4474
1898.4,-0.76651,0.54898
1910.2,1.7508,0.48765
1921.9,2.2531,0.69456
1933.6,2.5547,0.032992
1945.3,3.8767,-3.4725
1957,2.7831,2.7171
1968.8,-0.088454,8.0981
1980.5,0.14389,7.0251
1992.2,3.1486,6.5928
2003.9,3.1361,5.0189
2015.6,-0.22483,3.0157
2027.3,0.45871,1.0237
2039.1,4.2465,4.9335
2050.8,4.1691,0.98929
2062.5,3.4086,0.93624
2074.2,1.6112,1.2172
2085.9,2.3663,-0.89882
2097.7,2.5631,-0.91283
2109.4,-0.58278,1.3786
2121.1,-2.6116,3.2517
2132.8,-0.65944,2.2172
2144.5,2.0909,1.8119
2156.3,0.5431,1.8341
2168,0.62108,2.0265
2179.7,0.063838,2.0149
2191.4,0.90296,-0.21221
2203.1,-2.5705,-1.4868
2214.8,0.34696,-0.49713
2226.6,0.88583,-1.5542
2238.3,1.6612,0.26028
2250,3.0781,1.3088
2261.7,3.2382,2.1186
2273.4,0.47031,-0.52286
2285.2,0.85128,-3.7057
2296.9,1.5434,-1.1142
2308.6,0.65391,3.3778
2320.3,1.5639,2.4363
2332,3.2509,0.27533
2343.8,2.367,1.1122
2355.5,3.0818,0.71381
2367.2,4.0968,4.9853
2378.9,3.7865,4.3256
2390.6,2.5453,-1.8177
2402.3,0.44186,2.1567
2414.1,0.78882,3.0336
2425.8,0.34255,0.6028
2437.5,-1.2273,1.5776
2449.2,-1.5537,3.9732
2460.9,-2.0103,1.9162
2472.7,-3.8191,-0.06221
2484.4,-0.5009,1.7833
2496.1,0.89871,2.992
2507.8,0.88915,2.9038
2519.5,1.894,3.2278
2531.3,1.2386,2.619
2543,-0.91203,-0.37276
2554.7,-5.4791,-1.2199
2566.4,0.66527,-0.24185
2578.1,0.46744,-0.18067
2589.8,0.81189,-2.4834
2601.6,2.0086,2.6846
2613.3,1.5298,1.5543
2625,0.43343,-1.2391
2636.7,1.1162,-0.45741
2648.4,1.5656,0.36144
2660.2,0.20708,1.3863
2671.9,4.0224,2.4473
2683.6,4.6763,3.6374
2695.3,0.76273,3.5621
2707,-0.16866,2.4913
2718.8,-0.99354,-2.1883
2730.5,-1.5775,1.3188
2742.2,-1.4545,2.8423
2753.9,-3.2646,3.0313
2765.6,-0.063709,3.1497
2777.3,-0.16841,1.2833
2789.1,0.45647,0.33677
2800.8,-0.7259,1.2072
2812.5,-0.34354,1.5651
2824.2,-1.6515,1.9673
2835.9,-3.4105,0.79272
2847.7,-2.5152,-2.0923
2859.4,0.10255,-0.21265
2871.1,0.040242,0.25053
2882.8,-0.886,-0.30993
2894.5,-0.032329,-0.94189
2906.3,-1.5884,-1.9079
2918,-3.936,-0.61846
2929.7,-3.2762,0.1281
2941.4,-1.5139,-0.80214
2953.1,-1.2807,-1.1084
2964.8,-0.51436,-0.68919
2976.6,-0.24955,0.44035
2988.3,0.21751,1.4151
3000,-0.64398,-1.1715
3011.7,-1.6031,-4.9107
3023.4,-1.5117,-0.77095
3035.2,-3.866,0.59665
3046.9,-2.0267,-3.0296
3058.6,-0.88271,-3.0022
3070.3,0.065804,-2.9302
3082,0.70808,-1.568
3093.8,0.57534,0.99311
3105.5,-0.070344,3.0506
3117.2,-1.0021,2.8805
3128.9,0.42735,-0.38346
3140.6,-0.29737,-0.91407
3152.3,-2.778,0.2408
3164.1,-1.2328,0.62121
3175.8,-2.0288,-0.60274
3187.5,-2.7251,0.42403
3199.2,-2.203,-1.0959
3210.9,-0.95477,-4.7148
3222.7,-3.759,-2.9857
3234.4,1.3986,-3.3986
3246.1,-2.1658,-1.9498
3257.8,-3.8606,-1.6859
3269.5,-2.3837,-1.9822
3281.3,-0.55521,0.12114
3293,0.35786,0.64432
3304.7,0.54715,0.71726
3316.4,2.6973,0.76105
3328.1,1.4367,-1.7331
3339.8,-1.6349,-0.40699
3351.6,2.3313,-1.4841
3363.3,1.6814,-3.3843
3375,-0.078702,-3.3395
3386.7,-0.41815,-1.7127
3398.4,-2.1758,-0.001197
3410.2,0.37658,-1.746
3421.9,1.1218,-3.489
3433.6,-1.5113,0.056514
3445.3,-0.017406,2.3647
3457,0.90935,-0.22264
3468.8,-2.7647,-3.1881
3480.5,-2.6051,-3.3479
3492.2,0.051632,-3.1145
3503.9,-1.1288,-4.1091
3515.6,-3.9886,-1.1318
3527.3,0.046366,-3.0868
3539.1,1.7643,-4.0705
3550.8,0.18106,-1.5152
3562.5,-0.29019,-0.95866
3574.2,-0.79463,-2.8078
3585.9,-1.1481,-2.0524
3597.7,-2.9113,-0.96376
3609.4,-3.4424,-2.6211
3621.1,-2.4451,-1.1087
3632.8,-0.20096,-0.28204
3644.5,-1.3901,-3.7072
3656.3,-0.57352,-2.5354
3668,-0.56494,1.2588
3679.7,-0.64422,-0.75392
3691.4,-0.028047,-3.0385
3703.1,0.29797,-1.8994
3714.8,1.6209,-0.86419
3726.6,-1.8603,-2.0197
3738.3,-4.6219,-3.0189
3750,-4.7069,-6.1161
3761.7,-0.46068,-3.1122
3773.4,-2.852,-5.9623
3785.2,-2.2547,-3.9289
3796.9,-0.23409,-3.5648
3808.6,-1.8321,-0.25792
3820.3,-3.4943,-0.72692
3832,-4.2298,-0.19219
3843.8,-2.5361,-2.0833
3855.5,-3.6921,-2.297
3867.2,0.2442,-1.9954
3878.9,0.57761,-1.5738
3890.6,-4.0454,0.25415
3902.3,-3.6456,-0.90094
3914.1,-2.5392,-2.301
3925.8,-2.6922,-1.3016
3937.5,-2.8336,-2.1673
3949.2,-4.1853,-0.45321
3960.9,-1.2736,0.82364
3972.7,0.88654,-0.52901
3984.4,-0.71574,-1.9663
3996.1,-2.3498,-1.8912
4007.8,-1.6706,0.0033608
4019.5,-1.4081,-0.75215
4031.3,-1.2846,-0.77933
4043,-2.4819,-0.29869
4054.7,-3.3801,-3.6449
4066.4,-2.6899,-3.4037
4078.1,-4.1791,-1.0478
4089.8,-1.7804,-2.0928
4101.6,-2.5716,-4.3034
4113.3,-1.8825,-0.12814
4125,-0.77498,-0.35391
4136.7,-3.4168,-2.0882
4148.4,-4.039,-1.2152
4160.2,-2.2052,-1.0175
4171.9,-4.399,-0.61361
4183.6,-7.9668,-1.3431
4195.3,-5.2459,-0.586
4207,-5.8151,-1.2208
4218.8,-1.8857,-4.3085
4230.5,-1.0297,-2.565
4242.2,-4.7009,-0.55036
4253.9,-2.7367,-0.67294
4265.6,-0.80111,-0.59225
4277.3,-1.7111,-4.8835
4289.1,-2.6827,-1.0617
4300.8,-1.3019,-0.90629
4312.5,-1.5541,-2.3097
4324.2,-2.9545,-1.1483
4335.9,-4.8762,-3.4735
4347.7,-0.47996,-4.3772
4359.4,2.0125,-3.1284
4371.1,2.1212,-2.2054
4382.8,-0.47818,-5.2378
4394.5,-1.6557,-1.2007
4406.3,-2.1798,-1.5986
4418,-4.1674,-0.47525
4429.7,-4.9716,-6.4008
4441.4,-5.4142,-1.0339
4453.1,-0.60271,-0.95069
4464.8,0.13244,-0.87143
4476.6,-2.5521,-1.4517
4488.3,-4.803,-3.3702
4500,-6.4387,-3.1025
4511.7,-7.6341,-2.2004
4523.4,-5.5879,-1.2857
4535.2,-3.788,-0.96739
4546.9,-3.1331,0.042172
4558.6,-2.4284,-3.0643
4570.3,-2.9791,-2.0228
4582,-5.7536,-0.3409
4593.8,-2.6619,-0.152
4605.5,-1.0311,-1.3536
4617.2,-0.86769,-2.9574
4628.9,-1.5042,-4.4957
4640.6,-2.7098,-1.8874
4652.3,-0.75273,-1.3383
4664.1,0.044287,-4.366
4675.8,-0.37594,-6.1742
4687.5,-0.8484,-5.1945
4699.2,-2.2685,-3.077
4710.9,-5.3889,-2.46
4722.7,-4.8313,-2.1661
4734.4,-3.4006,-0.83169
4746.1,-2.6156,1.6611
4757.8,-4.288,-0.48376
4769.5,0.82171,-2.8403
4781.3,0.15962,-5.4004
4793,-4.2171,-6.1196
4804.7,-2.9977,-4.6117
4816.4,-2.3353,-3.5682
4828.1,-1.267,-4.1837
4839.8,1.0756,-4.8149
4851.6,-1.5736,-5.4908
4863.3,-6.5633,-2.746
4875,-5.3802,0.79713
4886.7,-2.9935,-0.41673
4898.4,-4.0436,-2.1282
4910.2,-4.9849,-1.9604
4921.9,-5.8826,-3.3672
4933.6,-4.7016,-4.8991
4945.3,-3.8531,-7.3087
4957,-2.8032,-3.52
4968.8,-5.3751,-4.0557
4980.5,-5.2813,-4.2351
4992.2,-3.3584,-5.0426
5003.9,-2.3106,-3.805
5015.6,-3.5006,-3.5161
5027.3,-3.1226,-2.3264
5039.1,-3.6017,-0.78174
5050.8,-4.5562,-1.6024
5062.5,-4.7601,-1.5228
5074.2,-4.8811,-0.46314
5085.9,-3.7656,-2.4663
5097.7,-2.3509,-4.2558
5109.4,-4.0586,-5.3997
5121.1,-5.1003,-5.6704
5132.8,-2.8432,-2.3012
5144.5,-4.162,-2.4405
5156.3,-5.5084,-1.5712
5168,-5.7214,-0.29719
5179.7,-3.34,-0.29829
5191.4,-2.0252,-3.9945
5203.1,-4.1351,-3.6468
5214.8,-5.921,-4.1289
5226.6,-4.4286,-1.2829
5238.3,-5.2662,-1.7766
5250,-6.6056,-3.8568
5261.7,-3.8235,-4.6806
5273.4,-1.3557,-2.9844
5285.2,-3.5069,-5.4837
5296.9,-6.8297,-3.5671
5308.6,-4.6332,-1.8217
5320.3,-2.4959,-3.0144
5332,-0.39266,-3.5592
5343.8,-5.0263,-3.8576
5355.5,-5.1721,-2.9189
5367.2,-5.0968,-3.6048
5378.9,-5.1285,-4.0516
5390.6,-3.8749,-6.4974
5402.3,-4.3402,-4.2522
5414.1,-4.5637,-2.9489
5425.8,-5.5259,-6.3043
5437.5,-5.3722,-2.4646
5449.2,-4.508,-2.5612
5460.9,-4.4476,0.97631
5472.7,-6.8363,-2.243
5484.4,-4.4244,-5.6968
5496.1,-4.0601,-1.8828
5507.8,-4.8847,-3.3723
5519.5,-3.7228,-3.3285
5531.3,-4.8497,-3.7671
5543,-5.8392,-2.1656
5554.7,-3.9053,-2.2017
5566.4,-7.2864,-6.8845
5578.1,-4.6148,-3.073
5589.8,-6.3957,-4.415
5601.6,-5.2385,-2.4385
5613.3,-4.7979,-1.1272
5625,-5.1699,-1.0744
5636.7,-2.4134,-3.4466
5648.4,-3.6482,-5.0339
5660.2,-6.5551,-3.115
5671.9,-4.7698,-1.3755
5683.6,-4.6398,-2.5765
5695.3,-6.9514,-3.9992
5707,-3.4,-4.292
5718.8,-3.5772,-2.0221
5730.5,-0.063269,-2.4932
5742.2,1.5397,-0.63345
5753.9,-2.2544,0.17563
5765.6,-3.9129,-0.090203
5777.3,-3.8892,-1.3246
5789.1,-7.8483,-3.0701
5800.8,-5.0115,-2.1436
5812.5,-2.4467,-1.6746
5824.2,-2.2874,-0.28045
5835.9,-4.6863,-0.48752
5847.7,-4.5358,1.4737
5859.4,-7.4299,-0.95158
5871.1,-3.7769,-5.1304
5882.8,-4.0722,-2.6015
5894.5,-3.9506,-0.40451
5906.3,-3.1711,-2.5668
5918,-3.3052,-2.9463
5929.7,-2.9792,-3.644
5941.4,-2.4233,-4.5134
5953.1,-5.484,-2.0132
5964.8,-3.7073,-3.9864
5976.6,-3.1612,-4.3563
5988.3,-2.5296,-2.569
6000,-2.4316,-2.8432
6011.7,-7.3862,-2.6488
6023.4,-5.0283,-1.9893
6035.2,-3.3086,-3.3915
6046.9,-3.1252,-5.136
6058.6,-4.5972,-1.9173
6070.3,-6.7546,-1.3943
6082,-5.6061,-1.0866
6093.8,-5.8609,-1.7091
6105.5,-4.8819,-2.9184
6117.2,-3.5462,-1.2558
6128.9,-2.1522,-3.4897
6140.6,-2.9312,-5.9273
6152.3,-2.6934,-7.9917
6164.1,-2.3513,-8.1787
6175.8,-3.9708,-6.799
6187.5,-0.64943,-3.8551
6199.2,2.7968,-4.2889
6210.9,0.69866,-4.3094
6222.7,-2.7857,-3.897
6234.4,-4.1762,-4.856
6246.1,-4.2121,-3.4212
6257.8,-1.4749,-2.7989
6269.5,-2.2711,-2.9471
6281.3,-4.2235,-3.8735
6293,-1.6471,-7.2777
6304.7,0.70159,-5.5201
6316.4,-4.058,-3.8299
6328.1,-8.3628,-2.7611
6339.8,-3.9218,-3.5527
6351.6,-3.0545,-4.3519
6363.3,-5.9805,-1.0993
6375,-6.597,-2.393
6386.7,-5.0892,-2.806
6398.4,-8.518,-2.2454
6410.2,-7.1847,-4.3448
6421.9,-5.1255,-5.7019
6433.6,-5.1998,-4.8253
6445.3,-7.2597,-4.862
6457,-5.8378,-6.0143
6468.8,-2.2781,-5.7471
6480.5,-1.3746,-6.6412
6492.2,-4.2552,-5.6077
6503.9,-8.8066,-6.6023
6515.6,-5.8458,-5.5271
6527.3,-3.2443,-4.375
6539.1,-3.1692,-2.7108
6550.8,-4.9367,-2.0822
6562.5,-5.7732,-3.4142
6574.2,-4.7569,-2.4095
6585.9,-5.9272,-3.4586
6597.7,-7.0156,-5.3333
6609.4,-4.2294,-5.6301
6621.1,-5.3228,-6.1157
6632.8,-5.4445,-5.7097
6644.5,-6.7204,-3.8849
6656.3,-5.1914,-3.6862
6668,-4.7745,-3.4433
6679.7,-6.3376,-3.2582
6691.4,-4.2122,-3.6302
6703.1,-3.086,-4.1511
6714.8,-3.4085,-6.2194
6726.6,-4.4759,-5.8785
6738.3,-4.5383,-7.0019
6750,-4.5837,-10.189
6761.7,-8.8297,-9.265
6773.4,-7.7202,-5.3256
6785.2,-6.0318,-3.7953
6796.9,-4.1479,-5.9562
6808.6,-5.9765,-4.9802
6820.3,-6.2929,-3.2068
6832,-5.7739,-3.8066
6843.8,-6.9455,-3.7309
6855.5,-5.7486,-4.9468
6867.2,-8.4701,-7.3455
6878.9,-7.8523,-5.9822
6890.6,-6.6268,-6.2337
6902.3,-4.534,-6.5784
6914.1,-5.6928,-4.8845
6925.8,-7.8899,-4.3703
6937.5,-7.9832,-5.5261
6949.2,-10.114,-6.162
6960.9,-7.6803,-5.2375
6972.7,-6.4178,-4.9864
6984.4,-6.4089,-6.618
6996.1,-10.45,-5.5
7007.8,-6.6767,-8.5799
7019.5,-5.7515,-7.3457
7031.3,-8.8055,-6.1904
7043,-6.0875,-6.7404
7054.7,-6.8973,-5.0482
7066.4,-6.6816,-6.9271
7078.1,-6.7587,-6.1274
7089.8,-5.9526,-7.6725
7101.6,-3.356,-10.335
7113.3,-4.3311,-4.5525
7125,-5.8095,-2.3691
7136.7,-7.9085,-4.5078
7148.4,-5.8278,-10.568
7160.2,-6.9538,-6.8608
7171.9,-3.6383,-2.8459
7183.6,-3.599,-2.4455
7195.3,-6.7532,-6.3762
7207,-7.3782,-4.3981
7218.8,-12.448,-3.5937
7230.5,-7.983,-2.6576
7242.2,-6.3217,-4.2545
7253.9,-7.2891,-4.1635
7265.6,-5.5956,-3.858
7277.3,-5.693,-4.9086
7289.1,-9.4115,-5.551
7300.8,-6.2295,-4.8495
7312.5,-5.4695,-5.1485
7324.2,-6.4939,-7.2627
7335.9,-6.0668,-6.8651
7347.7,-6.3775,-4.8385
7359.4,-9.418,-5.4819
7371.1,-7.5419,-7.8157
7382.8,-7.8077,-6.0333
7394.5,-6.8241,-4.7135
7406.3,-7.1553,-4.7956
7418,-6.9261,-6.5932
7429.7,-6.746,-5.9836
7441.4,-6.5561,-4.6554
7453.1,-7.3835,-7.5268
7464.8,-7.0508,-6.2714
7476.6,-6.3392,-3.8341
7488.3,-4.9459,-4.594
7500,-3.9281,-8.7484
7511.7,-6.1792,-10.382
7523.4,-7.3694,-8.1066
7535.2,-8.5564,-9.6479
7546.9,-6.8656,-8.7918
7558.6,-6.2901,-10.155
7570.3,-5.8097,-6.0592
7582,-8.7682,-6.5979
7593.8,-8.5056,-8.1425
7605.5,-7.4963,-8.7875
7617.2,-7.5778,-9.6104
7628.9,-7.7318,-6.577
7640.6,-7.6288,-4.1169
7652.3,-7.3415,-6.7263
7664.1,-4.9759,-8.6316
7675.8,-4.4917,-8.157
7687.5,-7.5217,-7.4662
7699.2,-8.2007,-6.4133
7710.9,-8.4162,-4.6199
7722.7,-8.9917,-5.674
7734.4,-9.096,-7.5041
7746.1,-9.1094,-7.7298
7757.8,-6.466,-6.4464
7769.5,-6.4087,-6.1709
7781.3,-7.0934,-8.6619
7793,-9.4259,-11.118
7804.7,-7.3635,-6.3671
7816.4,-10.436,-4.7205
7828.1,-9.7864,-6.7885
7839.8,-6.5553,-9.9657
7851.6,-8.3129,-9.1656
7863.3,-10.795,-8.3787
7875,-7.7389,-8.3257
7886.7,-7.1212,-9.6237
7898.4,-8.4625,-8.8343
7910.2,-10.296,-8.1178
7921.9,-11.897,-8.5583
7933.6,-7.1588,-10.025
7945.3,-5.5034,-11.346
7957,-9.6644,-13.192
7968.8,-8.5797,-11.53
7980.5,-9.9039,-8.7858
7992.2,-9.7213,-8.4144
8003.9,-8.2342,-7.3836
8015.6,-6.2979,-8.2269
8027.3,-5.9143,-8.4219
8039.1,-6.9178,-7.3218
8050.8,-7.677,-9.0922
8062.5,-8.6677,-9.4561
8074.2,-10.015,-7.3515
8085.9,-7.632,-6.7099
8097.7,-6.8988,-6.967
8109.4,-8.8871,-9.3298
8121.1,-8.8992,-8.7967
8132.8,-10.457,-7.924
8144.5,-10.44,-8.0401
8156.3,-9.0067,-8.4392
8168,-8.6145,-8.7949
8179.7,-10.454,-8.6981
8191.4,-10.5,-7.795
8203.1,-10.693,-8.742
8214.8,-9.7022,-10.447
8226.6,-10.36,-8.6939
8238.3,-9.2271,-7.3711
8250,-8.3351,-8.4222
8261.7,-8.7332,-8.9987
8273.4,-9.4643,-10.899
8285.2,-10.857,-10.613
8296.9,-7.6097,-8.7707
8308.6,-5.4558,-8.8347
8320.3,-7.1892,-10.246
8332,-8.4239,-9.4827
8343.8,-8.5357,-9.6556
8355.5,-6.3627,-9.5727
8367.2,-7.0028,-11.049
8378.9,-9.104,-12.031
8390.6,-9.3762,-9.8752
8402.3,-7.5787,-10.919
8414.1,-6.4333,-8.6857
8425.8,-6.7134,-7.0564
8437.5,-7.8765,-9.4737
8449.2,-9.4055,-12.229
8460.9,-8.4832,-12.655
8472.7,-10.781,-11.472
8484.4,-6.642,-10.679
8496.1,-4.0903,-12.07
8507.8,-9.5691,-10.902
8519.5,-10.464,-8.3049
8531.3,-10.85,-9.6406
8543,-11.456,-8.79
8554.7,-9.3638,-9.4536
8566.4,-6.7831,-8.5754
8578.1,-7.8975,-9.065
8589.8,-13.27,-8.4736
8601.6,-11.948,-7.6809
8613.3,-8.7241,-10.076
8625,-8.7362,-9.7009
8636.7,-9.2062,-8.9452
8648.4,-10.708,-9.0635
8660.2,-10.026,-9.4275
8671.9,-7.6899,-10.84
8683.6,-9.7097,-12.649
8695.3,-10.426,-9.9124
8707,-7.4866,-9.9409
8718.8,-7.3982,-13.28
8730.5,-10.916,-12.709
8742.2,-11.132,-11.461
8753.9,-10.192,-13.145
8765.6,-11.095,-13.478
8777.3,-9.2626,-10.002
8789.1,-9.4265,-6.5312
8800.8,-10.815,-7.6522
8812.5,-10.733,-10.898
8824.2,-9.5492,-12.5
8835.9,-10.001,-12.707
8847.7,-11.536,-13.401
8859.4,-7.1016,-13.349
8871.1,-8.4618,-9.9416
8882.8,-7.4611,-9.2929
8894.5,-7.9304,-10.379
8906.3,-6.1727,-8.6094
8918,-8.5094,-8.2149
8929.7,-10.017,-10.999
8941.4,-10.251,-10.433
8953.1,-11.149,-9.9932
8964.8,-12.713,-13.955
8976.6,-14.981,-12.827
8988.3,-12.606,-9.2626
9000,-11.1,-8.2558
9011.7,-9.3868,-7.761
9023.4,-12.096,-9.0128
9035.2,-11.288,-10.146
9046.9,-11.768,-10.485
9058.6,-7.6712,-11.543
9070.3,-7.789,-8.802
9082,-7.4129,-8.9215
9093.8,-8.1707,-10.083
9105.5,-7.3136,-9.7391
9117.2,-8.209,-8.4519
9128.9,-9.9247,-7.6661
9140.6,-6.8179,-6.5381
9152.3,-7.6688,-8.1641
9164.1,-9.4872,-10.137
9175.8,-12.482,-9.5657
9187.5,-11.861,-9.1203
9199.2,-13.76,-10.295
9210.9,-13.882,-9.9041
9222.7,-9.2581,-9.9117
9234.4,-8.2237,-10.41
9246.1,-8.742,-10.733
9257.8,-13.127,-8.1274
9269.5,-12.813,-8.3985
9281.3,-9.8365,-9.0893
9293,-10.562,-9.9899
9304.7,-7.8984,-11.124
9316.4,-5.9848,-8.7877
9328.1,-6.0357,-8.1525
9339.8,-8.317,-10.278
9351.6,-7.158,-12.257
9363.3,-6.3367,-13.606
9375,-6.2412,-8.5596
9386.7,-8.3165,-7.3336
9398.4,-9.8894,-10.177
9410.2,-9.6011,-10.842
9421.9,-11.698,-11.317
9433.6,-9.5231,-8.0075
9445.3,-6.6204,-9.1896
9457,-8.3235,-9.1855
9468.8,-9.8652,-12.103
9480.5,-11.375,-9.8345
9492.2,-10.803,-9.6898
9503.9,-14.008,-11.74
9515.6,-12.834,-15.553
9527.3,-10.82,-12.38
9539.1,-9.7733,-10.264
9550.8,-7.1535,-9.5466
9562.5,-11.343,-9.0559
9574.2,-12.109,-10.095
9585.9,-9.0002,-11.222
9597.7,-8.5317,-12.472
9609.4,-9.5312,-11.538
9621.1,-11.142,-8.9724
9632.8,-12.108,-10.571
9644.5,-11.027,-12.604
9656.3,-9.7684,-8.3368
9668,-11.26,-6.196
9679.7,-12.413,-9.6829
9691.4,-14.453,-11.648
9703.1,-10.051,-11.176
9714.8,-9.1167,-11.432
9726.6,-10.425,-10.336
9738.3,-12.259,-7.967
9750,-14.487,-9.4749
9761.7,-10.407,-11.232
9773.4,-8.8503,-10.225
9785.2,-8.7778,-10.996
9796.9,-9.6624,-14.681
9808.6,-9.7997,-12.479
9820.3,-10.019,-11.355
9832,-11.274,-14.434
9843.8,-12.689,-11.744
9855.5,-10.021,-10.552
9867.2,-12.193,-12.903
9878.9,-13.15,-13.605
9890.6,-9.862,-15.707
9902.3,-8.5665,-12.463
9914.1,-7.7721,-12.589
9925.8,-8.6794,-10.404
9937.5,-10.815,-9.3526
9949.2,-10.403,-11.025
9960.9,-9.2864,-12.163
9972.7,-9.0816,-11.75
9984.4,-9.7136,-11.544
9996.1,-11.296,-13.751
10008,-9.9879,-11.786
10020,-10.029,-13.776
10031,-11.751,-14.384
10043,-10.834,-9.8301
10055,-11.493,-9.0071
10066,-9.5993,-11.982
10078,-7.4743,-10.172
10090,-8.3425,-12.103
10102,-10.996,-11.883
10113,-13.254,-11.18
10125,-9.2052,-9.1946
10137,-9.45,-11.446
10148,-11.92,-13.675
10160,-11.993,-11.798
10172,-13.683,-15.581
10184,-12.392,-16.89
10195,-12.353,-12.203
10207,-13.241,-10.844
10219,-9.933,-11.149
10230,-8.5995,-11.295
10242,-11.091,-9.9958
10254,-10.219,-11.568
10266,-12.284,-14.389
10277,-12.201,-11.442
10289,-11.888,-9.0899
10301,-9.4653,-12.583
10313,-9.408,-11.922
10324,-10.591,-9.7468
10336,-10.16,-11.045
10348,-9.5615,-9.6114
10359,-9.5804,-10.688
10371,-9.7192,-10.852
10383,-8.4854,-10.724
10395,-7.549,-10.951
10406,-11.011,-10.32
10418,-13.55,-9.847
10430,-12.979,-12.031
10441,-11.73,-13.36
10453,-12.923,-13.006
10465,-11.056,-11.869
10477,-9.4078,-11.612
10488,-9.7999,-9.687
10500,-12.306,-9.539
10512,-11.545,-12.015
10523,-15.044,-12.125
10535,-13.875,-13.437
10547,-10.931,-15.906
10559,-11.154,-14.315
10570,-13.698,-14.969
10582,-10.329,-14.942
10594,-9.5003,-12.081
10605,-10.51,-12.372
10617,-10.047,-12.939
10629,-11.64,-11.134
10641,-11.344,-11.345
10652,-10.983,-11.724
10664,-11.709,-12.284
10676,-11.539,-11.529
10688,-9.0827,-10.781
10699,-9.531,-12.067
10711,-10.872,-11.842
10723,-13.422,-15.42
10734,-12.057,-15.392
10746,-10.518,-11.78
10758,-8.6534,-10.689
10770,-8.379,-9.2711
10781,-9.6076,-10.107
10793,-10.634,-11.135
10805,-9.5232,-14.466
10816,-8.2947,-14.422
10828,-9.8338,-11.644
10840,-13.747,-11.057
10852,-11.594,-12.218
10863,-8.3077,-12.59
10875,-10.833,-11.175
10887,-10.462,-10.72
10898,-9.6199,-10.534
10910,-10.965,-10.377
10922,-9.7534,-10.124
10934,-11.52,-9.2174
10945,-12.775,-10.881
10957,-9.9154,-14.429
10969,-9.4136,-12.847
10980,-10.697,-11.998
10992,-9.0813,-9.2884
11004,-7.7097,-9.2605
11016,-7.0098,-13.015
11027,-9.8583,-13.119
11039,-8.3203,-13.124
11051,-9.8695,-12.861
11063,-13.089,-13.232
11074,-10.054,-15.25
11086,-7.1402,-16.209
11098,-8.417,-13.623
11109,-12.01,-11.209
11121,-12.89,-10.491
11133,-10.652,-13.142
11145,-12.185,-13.331
11156,-11.643,-10.599
11168,-10.702,-8.8051
11180,-10.552,-12.633
11191,-11.05,-13.504
11203,-10.629,-13.62
11215,-12.967,-14.602
11227,-15.053,-11.666
11238,-10.534,-14.335
11250,-11.194,-14.908
11262,-12.312,-12.669
11273,-11.396,-12.447
11285,-9.6004,-12.806
11297,-11.858,-12.292
11309,-11.982,-12.774
11320,-10.029,-12.417
11332,-11.59,-12.599
11344,-11.315,-14.357
11355,-10.308,-14.026
11367,-11.223,-13.288
11379,-13.568,-12.699
11391,-13.249,-11.349
11402,-10.98,-12.834
11414,-9.2583,-10.657
11426,-8.1572,-10.06
11438,-8.0493,-12.024
11449,-11.604,-11.172
11461,-11.357,-11.349
11473,-10.32,-14.502
11484,-11.031,-15.212
11496,-12.095,-10.839
11508,-11.364,-10.986
11520,-11.943,-12.199
11531,-9.8415,-11.168
11543,-7.8063,-10.097
11555,-10.259,-15.423
11566,-11.459,-13.955
11578,-12.525,-15.324
11590,-11.646,-14.056
11602,-8.6668,-16.829
11613,-9.3248,-12.915
11625,-11.892,-12.286
11637,-13.073,-14.854
11648,-12.471,-18.715
11660,-12.434,-15.787
11672,-10.705,-11.951
11684,-8.0331,-10.732
11695,-8.5557,-11.963
11707,-6.3849,-12.998
11719,-7.4055,-13.056
11730,-9.6932,-16.21
11742,-12.436,-17.912
11754,-11.422,-15.244
11766,-11.486,-11.288
11777,-9.3788,-11.578
11789,-10.513,-12.118
11801,-10.118,-12.442
11813,-11.706,-11.188
11824,-13.452,-13.003
11836,-13.513,-14.294
11848,-9.1425,-14.23
11859,-9.9288,-13.768
11871,-10.613,-13.249
11883,-9.9327,-15.283
11895,-7.7651,-12.32
11906,-7.2272,-12.69
11918,-9.2075,-15.269
11930,-10.304,-13.942
11941,-9.7522,-16.474
11953,-12.032,-15.204
11965,-12.802,-18.164
11977,-13.275,-16.263
11988,-11.479,-11.635
12000,-11.114,-12.495
12012,-13.089,-15.261
12023,-8.434,-14.596
12035,-7.3028,-14.667
12047,-12.251,-15.426
12059,-11.312,-12.701
12070,-7.6722,-11.511
12082,-7.8977,-12.21
12094,-11.294,-10.492
12105,-8.6085,-11.657
12117,-6.6882,-12.459
12129,-6.943,-10.428
12141,-7.1412,-12.894
12152,-8.0003,-13.289
12164,-6.7692,-11.238
12176,-10.294,-10.874
12188,-13.323,-12.307
12199,-8.5248,-12.317
12211,-8.3853,-14.299
12223,-8.0599,-14.324
12234,-7.949,-13.307
12246,-9.1371,-13.717
12258,-10.267,-15.049
12270,-13.515,-14.362
12281,-13.525,-13.822
12293,-9.6435,-12.921
12305,-11.113,-15.497
12316,-12.768,-13.908
12328,-11.967,-13.897
12340,-8.7515,-18.927
12352,-9.4016,-14.478
12363,-11.757,-15.089
12375,-13.929,-16.664
12387,-8.9985,-13.22
12398,-8.6449,-12.659
12410,-10.642,-16.561
12422,-10.155,-15.444
12434,-10.666,-15.627
12445,-10.11,-17.686
12457,-9.3472,-16.198
12469,-10.433,-15.274
12480,-10.707,-15.97
12492,-9.5186,-14.453
12504,-8.1894,-13.353
12516,-8.7452,-13.554
12527,-12.586,-14.532
12539,-10.392,-16.661
12551,-10.324,-15.831
12563,-10.973,-14.476
12574,-11.209,-15.595
12586,-13.402,-14.547
12598,-15.582,-15.972
12609,-14.21,-14.972
12621,-10.471,-13.802
12633,-10.097,-16.206
12645,-8.4819,-15.584
12656,-9.2958,-14.522
12668,-9.4156,-13.249
12680,-10.789,-14.517
12691,-12.653,-13.186
12703,-11.564,-14.736
12715,-11.914,-16.662
12727,-12.774,-15.477
12738,-9.6598,-15.68
12750,-9.337,-14.505
12762,-9.3439,-14.36
12773,-7.5007,-12.825
12785,-8.9225,-14.352
12797,-8.9431,-14.113
12809,-9.6492,-12.338
12820,-7.7306,-11.896
12832,-11.548,-12.429
12844,-11.681,-15.938
12855,-9.4408,-15.092
12867,-8.8048,-14.158
12879,-7.9326,-14.891
12891,-12.965,-15.53
12902,-10.943,-14.985
12914,-10.549,-16.38
12926,-12.621,-16.034
12938,-14.383,-15.628
12949,-15.455,-16.682
12961,-10.516,-16.344
12973,-10.839,-15.458
12984,-12.91,-17.373
12996,-8.4568,-15.33
13008,-6.8595,-14.505
13020,-7.2848,-13.494
13031,-9.3747,-14.845
13043,-9.1264,-14.254
13055,-9.5191,-11.908
13066,-16.49,-14.649
13078,-11.691,-14.489
13090,-10.255,-14.465
13102,-13.241,-13.801
13113,-13.063,-10.823
13125,-12.058,-14.923
13137,-10.107,-14.262
13148,-10.623,-16.379
13160,-11.657,-15.151
13172,-12.247,-13.921
13184,-13.3,-18.621
13195,-10.42,-18.277
13207,-10.748,-18.322
13219,-9.9964,-17.448
13230,-9.3088,-14.892
13242,-10.971,-12.73
13254,-13.301,-14.018
13266,-13.346,-13.915
13277,-11.09,-13.757
13289,-9.3461,-16.565
13301,-8.7007,-13.695
13313,-8.3582,-11.427
13324,-12.148,-13.881
13336,-13.308,-16.292
13348,-13.354,-16.311
13359,-12.282,-14.804
13371,-8.0182,-13.232
13383,-9.4335,-15.175
13395,-12.826,-15.528
13406,-12.869,-16.346
13418,-13.553,-16.142
13430,-14.464,-13.483
13441,-13.778,-14.928
13453,-15.559,-13.289
13465,-12.916,-15.75
13477,-10.247,-14.089
13488,-10.856,-13.987
13500,-10.472,-14.676
13512,-10.266,-14.32
13523,-10.109,-11.795
13535,-11.534,-13.091
13547,-12.746,-12.877
13559,-13.655,-12.924
13570,-14.329,-16.273
13582,-14.816,-16.758
13594,-16.885,-15.691
13605,-15.948,-12.205
13617,-15.279,-15.439
13629,-12.205,-17.191
13641,-10.921,-13.375
13652,-12.848,-16.391
13664,-14.388,-14.743
13676,-12.376,-16.009
13688,-14.557,-15.706
13699,-12.999,-17.355
13711,-14.122,-16.477
13723,-14.893,-18.152
13734,-16.648,-14.872
13746,-16.245,-16.602
13758,-13.112,-18.172
13770,-12.315,-16.92
13781,-12.79,-15.587
13793,-11.106,-12.755
13805,-11.854,-15.433
13816,-14.344,-14.851
13828,-14.261,-15.576
13840,-12.644,-15.339
13852,-11.725,-16.801
13863,-14.873,-16.014
13875,-12.959,-13.843
13887,-11.298,-13.137
13898,-14.791,-13.5
13910,-15.099,-12.461
13922,-17.355,-12.374
13934,-15.33,-14.248
13945,-13.776,-16.194
13957,-11.591,-16.996
13969,-14.393,-13.268
13980,-11.672,-14.062
13992,-9.7057,-16.214
14004,-13.306,-13.646
14016,-16.634,-13.14
14027,-19.115,-12.536
14039,-13.904,-13.879
14051,-13.232,-14.293
14063,-13.512,-14.986
14074,-12.541,-15.727
14086,-14.671,-15.732
14098,-15.532,-16.923
14109,-14.54,-14.741
14121,-14.459,-15.061
14133,-12.849,-16.078
14145,-13.757,-16.426
14156,-16.496,-14.187
14168,-14.276,-17.331
14180,-15.394,-17.144
14191,-14.272,-13.149
14203,-16.63,-15.13
14215,-15.693,-15.218
14227,-11.686,-16.419
14238,-11.259,-16.332
14250,-14.905,-15.095
14262,-16.377,-14.016
14273,-14.538,-14.385
14285,-14.01,-15.247
14297,-13.265,-16.739
14309,-12.116,-16.39
14320,-13.242,-18.562
14332,-15.47,-19.124
14344,-14.819,-15.828
14355,-11.184,-14.035
14367,-11.781,-16.583
14379,-15.925,-19.344
14391,-16.864,-17.499
14402,-15.448,-16.999
14414,-14.308,-15.63
14426,-16.084,-15.91
14438,-18.808,-16.643
14449,-17.793,-17.471
14461,-16.705,-16.291
14473,-16.407,-15.604
14484,-16.539,-16.023
14496,-17.622,-15.887
14508,-13.556,-12.481
14520,-12.267,-17.642
14531,-16.19,-16.316
14543,-14.429,-15.725
14555,-16.577,-14.679
14566,-16.977,-14.983
14578,-15.826,-17.219
14590,-17.125,-17.562
14602,-16.229,-15.082
14613,-17.947,-16.615
14625,-18.214,-17.406
14637,-17.599,-16.922
14648,-15.331,-17.085
14660,-13.567,-19.359
14672,-13.107,-17.785
14684,-12.814,-16.748
14695,-13.231,-15.746
14707,-12.346,-16.326
14719,-16.327,-16.958
14730,-15.791,-15.454
14742,-15.555,-15.01
14754,-15.389,-14.097
14766,-14.449,-16.701
14777,-12.355,-20.712
14789,-11.893,-19.176
14801,-14.516,-15.001
14813,-16.896,-13.767
14824,-15.901,-13.397
14836,-13.232,-13.662
14848,-14.152,-15.831
14859,-17.228,-17.285
14871,-16.726,-17.531
14883,-16.911,-17.222
14895,-15.387,-18.559
14906,-12.085,-18.782
14918,-13.08,-18.163
14930,-13.6,-14.707
14941,-15.179,-14.266
14953,-16.614,-18.202
14965,-15.88,-16.734
14977,-14.38,-14.95
14988,-16.301,-15.975
15000,-12.613,-16.496
15012,-13.093,-18.555
15023,-14.45,-17.946
15035,-14.25,-18.806
15047,-16.435,-18.692
15059,-15.282,-17.839
15070,-17.194,-16.922
15082,-16.02,-17.296
15094,-15.484,-19.117
15105,-16.552,-19.552
15117,-16.401,-18.074
15129,-16.687,-17.903
15141,-12.789,-13.767
15152,-12.252,-13.44
15164,-16.245,-14.288
15176,-16.477,-17.903
15188,-14.869,-16.881
15199,-12.925,-17.374
15211,-14.558,-14.434
15223,-14.779,-13.695
15234,-14.587,-16.671
15246,-13.583,-16.149
15258,-14.568,-19.708
15270,-14.558,-19.767
15281,-15.6,-20.069
15293,-15.037,-17.981
15305,-15.115,-16.73
15316,-15.193,-17.938
15328,-12.741,-18.753
15340,-13.449,-18.195
15352,-16.24,-18.106
15363,-19.815,-18.516
15375,-17.057,-17.753
15387,-15.82,-16.233
15398,-17.516,-14.908
15410,-16.561,-17.275
15422,-16.318,-20.601
15434,-17.334,-20.405
15445,-18.112,-18.796
15457,-17.645,-21.442
15469,-17.104,-18.034
15480,-17.972,-17.99
15492,-15.443,-15.633
15504,-14.697,-16.002
15516,-15.034,-18.24
15527,-14.858,-16.785
15539,-14.385,-16.233
15551,-13.053,-16.798
15563,-12.805,-17.407
15574,-16.789,-18.104
15586,-16.137,-17.606
15598,-14.893,-18.876
15609,-14.54,-19.518
15621,-13.644,-19.459
15633,-14.252,-17.642
15645,-15.475,-15.926
15656,-18.136,-17.527
15668,-17.91,-19.946
15680,-17.074,-20.573
15691,-17.858,-19.757
15703,-18.204,-20.905
15715,-16.462,-18.32
15727,-14.961,-17.348
15738,-16.477,-17.425
15750,-17.923,-18.447
15762,-17.691,-18
15773,-14.168,-18.816
15785,-17.906,-20.487
15797,-16.406,-19.005
15809,-17.152,-14.977
15820,-15.986,-17.378
15832,-15.154,-23.955
15844,-14.499,-19.183
15855,-16.182,-18.745
15867,-17.075,-16.342
15879,-16.53,-16.696
15891,-17.797,-16.144
15902,-18.246,-14.864
15914,-15.871,-15.624
15926,-15.249,-18.059
15938,-18.46,-20.904
15949,-15.677,-22.253
15961,-14.17,-20.997
15973,-13.621,-19.958
15984,-14.04,-19.518
15996,-15.891,-16.232
16008,-16.191,-17.233
16020,-14.666,-17.182
16031,-15.074,-20.443
16043,-15.26,-23.392
16055,-18.059,-19.927
16066,-16.679,-17.164
16078,-14.869,-18.465
16090,-17.337,-19.74
16102,-15.86,-19.763
16113,-16.475,-18.477
16125,-19.879,-17.97
16137,-16.455,-14.909
16148,-14.472,-14.831
16160,-18.531,-17.643
16172,-20.162,-17.51
16184,-19.279,-20.062
16195,-18.08,-21.449
16207,-15.731,-21.324
16219,-16.276,-19.08
16230,-16.529,-19.871
16242,-17.207,-19.545
16254,-18.884,-21.041
16266,-20.116,-19.893
16277,-18.443,-19.861
16289,-15.381,-21.558
16301,-14.62,-21.742
16313,-17.02,-22.842
16324,-17.196,-22.995
16336,-15.409,-23.143
16348,-15.888,-22.882
16359,-15.628,-22.092
16371,-17.08,-22.611
16383,-19.079,-23.246
16395,-19.513,-21.101
16406,-19.213,-18.236
16418,-19.217,-20.327
16430,-20.017,-18.937
16441,-20.617,-18.349
16453,-19.667,-17.038
16465,-17.089,-17.372
16477,-15.386,-20.003
16488,-19.313,-21.059
16500,-20.059,-21.819
16512,-18.29,-20.549
16523,-18.791,-22.979
16535,-18.063,-21.141
16547,-18.112,-20.897
16559,-18.12,-20.897
16570,-16.818,-18.507
16582,-18.386,-19.168
16594,-18.326,-19.152
16605,-15.362,-15.925
16617,-20,-14.944
16629,-19.946,-17.533
16641,-17.601,-20.612
16652,-18.369,-20.912
16664,-19.63,-21.055
16676,-19.518,-23.801
16688,-16.564,-19.475
16699,-18.311,-17.522
16711,-19.847,-18.243
16723,-16.229,-17.484
16734,-16.663,-19.276
16746,-19.239,-21.652
16758,-24.734,-21.432
16770,-20.159,-19.029
16781,-16.651,-20.323
16793,-18.995,-20.584
16805,-18.934,-19.94
16816,-17.601,-19.594
16828,-16.798,-20.4
16840,-16.013,-20.992
16852,-17.719,-21.95
16863,-19.032,-17.057
16875,-19.421,-17.954
16887,-17.578,-21.482
16898,-16.827,-20.181
16910,-20.009,-20.232
16922,-20.766,-19.135
16934,-22.327,-21.721
16945,-21.839,-24.336
16957,-21.221,-20.442
16969,-21.369,-19.156
16980,-23.087,-19.795
16992,-20.264,-20.644
17004,-20.254,-21.989
17016,-20.741,-21.075
17027,-19.146,-21.129
17039,-20.482,-20.391
17051,-21.894,-20.46
17063,-20.156,-20.804
17074,-18.302,-20.887
17086,-20.422,-21.943
17098,-22.796,-23.812
17109,-22.386,-22.61
17121,-21.759,-21.462
17133,-22.838,-20.81
17145,-22.704,-22.896
17156,-22.422,-21.496
17168,-17.72,-17.676
17180,-17.102,-16.417
17191,-19.819,-17.395
17203,-21.119,-22.086
17215,-21.052,-25.867
17227,-18.825,-25.503
17238,-18.446,-23.313
17250,-16.968,-18.993
17262,-20.427,-20.784
17273,-20.262,-21.561
17285,-19.518,-23.698
17297,-18.54,-20.743
17309,-19.052,-18.748
17320,-20.85,-19.491
17332,-22.147,-21.333
17344,-20.876,-22.871
17355,-19.579,-20.627
17367,-18.241,-21.85
17379,-18.859,-22.722
17391,-22.754,-22.744
17402,-22.517,-22.525
17414,-19.596,-22.613
17426,-18.928,-22.679
17438,-20.253,-22.764
17449,-23.127,-24.195
17461,-23.831,-23.363
17473,-19.273,-19.797
17484,-19.459,-22.838
17496,-21.228,-22.096
17508,-21.74,-21.205
17520,-21.046,-20.721
17531,-20.376,-24.668
17543,-19.285,-23.208
17555,-20.215,-23.078
17566,-23.33,-21.76
17578,-22.166,-24.65
17590,-21.196,-24.593
17602,-20.479,-20.612
17613,-22.302,-21.584
17625,-20.325,-19.042
17637,-21.162,-18.629
17648,-22.94,-20.13
17660,-23.58,-21.925
17672,-19.347,-21.648
17684,-21.785,-20.605
17695,-23.362,-19.951
17707,-22.604,-20.47
17719,-22.416,-20.677
17730,-21.823,-19.972
17742,-21.004,-19.956
17754,-20.639,-17.973
17766,-20.653,-18.407
17777,-21.397,-19.216
17789,-21.227,-21.023
17801,-22.628,-19.6
17813,-21.362,-20.137
17824,-22.719,-24.508
17836,-20.936,-22.155
17848,-19.272,-21.063
17859,-21.164,-20.25
17871,-23.498,-18.432
17883,-23.1,-20.891
17895,-21.362,-26.059
17906,-20.06,-24.744
17918,-20.456,-20.796
17930,-21.822,-17.971
17941,-17.925,-18.806
17953,-20.287,-21.464
17965,-21.526,-20.457
17977,-20.859,-22.208
17988,-23.274,-22.922
18000,-22.747,-18.442
18012,-25.389,-19.56
18023,-23.367,-20.383
18035,-22.442,-20.938
18047,-20.074,-22.827
18059,-19.781,-24.203
18070,-21.687,-26.387
18082,-19.92,-25.069
18094,-19.747,-23.792
18105,-17.365,-20.343
18117,-19.559,-21.145
18129,-18.526,-23.534
18141,-18.397,-26.533
18152,-18.783,-24.775
18164,-19.351,-20.23
18176,-20.306,-19.729
18188,-20.725,-22.734
18199,-21.336,-21.329
18211,-21.618,-21.476
18223,-22.312,-20.648
18234,-22.712,-21.512
18246,-22.597,-23.777
18258,-19.938,-22.224
18270,-21.218,-20.491
18281,-21.904,-20.24
18293,-19.564,-23.798
18305,-21.998,-23.854
18316,-18.13,-21.268
18328,-17.302,-22.781
18340,-19.993,-24.32
18352,-22.432,-21.264
18363,-22.468,-21.039
18375,-22.632,-22.222
18387,-24.151,-19.284
18398,-24.369,-18.618
18410,-23.66,-23.878
18422,-23.839,-25.341
18434,-23.651,-22.397
18445,-21.022,-22.352
18457,-21.38,-20.313
18469,-24.375,-20.464
18480,-20.208,-20.091
18492,-19.731,-19.86
18504,-24.886,-22.137
18516,-20.826,-24.379
18527,-22.755,-20.199
18539,-25.908,-17.876
18551,-24.929,-18.102
18563,-24.792,-20.868
18574,-22.335,-21.653
18586,-21.288,-23.582
18598,-25.926,-21.926
18609,-25.139,-23.232
18621,-24.57,-22.276
18633,-23.853,-24.248
18645,-23.459,-20.566
18656,-22.446,-21.128
18668,-19.862,-20.835
18680,-18.577,-21.764
18691,-18.279,-24.405
18703,-20.45,-21.13
18715,-21.984,-22.921
18727,-23.816,-21.97
18738,-25.405,-20.656
18750,-25.553,-19.696
18762,-24.719,-19.891
18773,-27.845,-19.509
18785,-25.344,-17.973
18797,-26.509,-20.643
18809,-27.011,-22.202
18820,-25.337,-22.775
18832,-23.36,-22.006
18844,-26.522,-21.645
18855,-23.224,-21.602
18867,-22.112,-22.794
18879,-24.938,-24.94
18891,-24.276,-22.971
18902,-23.273,-20.233
18914,-20.952,-21.947
18926,-21.938,-23.837
18938,-22.718,-24.611
18949,-21.841,-23.137
18961,-23.192,-22.08
18973,-24.883,-23.169
18984,-22.203,-19.518
18996,-20.11,-21.331
19008,-20.77,-26.73
19020,-20.493,-26.921
19031,-22.747,-25.004
19043,-20.35,-24.571
19055,-20.132,-23.961
19066,-21.492,-23.315
19078,-24.609,-22.462
19090,-21.841,-22.51
19102,-18.689,-26.972
19113,-23.039,-23.692
19125,-19.411,-23.642
19137,-17.936,-23.674
19148,-22.11,-24.389
19160,-22.183,-27.059
19172,-22.253,-25.17
19184,-21.882,-22.232
19195,-24.408,-23.856
19207,-23.716,-23.667
19219,-20.525,-23.365
19230,-20.279,-23.323
19242,-21.24,-23.755
19254,-20.572,-23.646
19266,-25.693,-22.034
19277,-22.585,-22.405
19289,-21.05,-23.485
19301,-21.931,-23.851
19313,-22.862,-21.359
19324,-23.776,-20.11
19336,-18.673,-19.08
19348,-21.283,-18.484
19359,-24.042,-20.013
19371,-23.119,-21.934
19383,-20.984,-26.949
19395,-20.302,-25.945
19406,-22.624,-23.655
19418,-23.4,-20.44
19430,-22.087,-20.484
19441,-19.692,-22.363
19453,-24.486,-21.32
19465,-24.298,-22.351
19477,-20.956,-23.137
19488,-23.164,-22.015
19500,-22.678,-22.865
19512,-25.844,-25.327
19523,-24.166,-25.47
19535,-20.268,-24.583
19547,-21.075,-23.97
19559,-22.681,-22.138
19570,-22.846,-20.52
19582,-25.308,-21.65
19594,-23.636,-20.87
19605,-21.339,-18.823
19617,-19.449,-20.27
19629,-19.947,-21.819
19641,-21.192,-21.821
19652,-23.606,-22.75
19664,-24.04,-22.04
19676,-23.602,-21.978
19688,-22.079,-22.665
19699,-21.658,-26.602
19711,-20.987,-21.042
19723,-21.872,-19.511
19734,-21.751,-22.855
19746,-22.556,-27.468
19758,-21.707,-25.119
19770,-19.959,-23.527
19781,-21.959,-22.069
19793,-21.981,-22.892
19805,-22.44,-23.73
19816,-24.622,-22.134
19828,-22.844,-25.345
19840,-21.559,-25.218
19852,-20.865,-24.561
19863,-19.597,-24.857
19875,-21.894,-24.524
19887,-19.948,-22.638
19898,-20.304,-24.971
19910,-23.048,-24.924
19922,-20.727,-25.408
19934,-20.638,-24.659
19945,-23.715,-23.236
19957,-25.318,-21.237
19969,-23.662,-23.062
19980,-21.994,-24.997
19992,-20.75,-25.38
20004,-20.375,-21.429
20016,-20.751,-24.385
20027,-21.14,-26.149
20039,-20.693,-24.894
20051,-18.485,-26.913
20063,-19.199,-25.099
20074,-23.897,-25.887
20086,-24.247,-24.497
20098,-25.337,-24.112
20109,-22.175,-22.045
20121,-23.289,-20.876
20133,-22.943,-22.318
20145,-22.332,-24.511
20156,-23.786,-22.139
20168,-25.443,-25.34
20180,-22.436,-24.28
20191,-21.767,-22.737
20203,-21.397,-23.493
20215,-25.151,-26.719
20227,-23.97,-28.47
20238,-20.423,-28.265
20250,-20.661,-27.468
20262,-18.432,-24.413
20273,-20.022,-25.469
20285,-21.21,-25.156
20297,-23.883,-22.166
20309,-22.562,-23.944
20320,-23.451,-26.868
20332,-24.841,-27.467
20344,-23.783,-25.437
20355,-21.895,-25.126
20367,-20.986,-23.586
20379,-22.141,-24.487
20391,-24.259,-28.508
20402,-22.185,-24.163
20414,-20.698,-24.743
20426,-22.323,-25.199
20438,-24.092,-25.838
20449,-23.316,-24.663
20461,-24.425,-25.082
20473,-23.13,-24.172
20484,-20.249,-23.236
20496,-19.975,-24.845
20508,-21.072,-24.798
20520,-22.617,-23.962
20531,-20.875,-25.648
20543,-20.326,-22.133
20555,-23.763,-26.665
20566,-20.308,-22.296
20578,-21.676,-21.246
20590,-26.323,-23.145
20602,-24.573,-25.033
20613,-22.522,-25.579
20625,-23.061,-24.468
20637,-19.12,-23.031
20648,-20.566,-20.61
20660,-20.565,-20.695
20672,-18.374,-22.55
20684,-20.218,-25.223
20695,-20.951,-24.638
20707,-19.432,-26.802
20719,-22.243,-26.255
20730,-23.129,-26.566
20742,-22.195,-25.925
20754,-21.816,-23.968
20766,-21.402,-23.679
20777,-25.341,-21.632
20789,-23.122,-22.977
20801,-23.105,-23.092
20813,-21.242,-22.421
20824,-22.239,-24.323
20836,-22.188,-26.096
20848,-21.745,-26.533
20859,-21.967,-25.071
20871,-22.88,-24.777
20883,-23.451,-24.186
20895,-22.433,-24.618
20906,-24.915,-24.824
20918,-24.872,-23.52
20930,-25.464,-22.081
20941,-23.822,-22.346
20953,-22.812,-24.827
20965,-23.912,-28.001
20977,-21.825,-26.111
20988,-24.477,-23.655
21000,-26.138,-22.852
21012,-24.784,-26.991
21023,-24.74,-26.283
21035,-24.1,-28.019
21047,-25.162,-27.792
21059,-23.984,-27.425
21070,-21.062,-25.893
21082,-21.928,-24.754
21094,-23.973,-25.089
21105,-21.697,-25.206
21117,-22.584,-23.156
21129,-23.613,-22.997
21141,-23.925,-25.516
21152,-22.687,-26.226
21164,-20.208,-25.021
21176,-22.72,-25.781
21188,-22.189,-26.072
21199,-21.024,-24.944
21211,-22.534,-25.098
21223,-22.36,-26.107
21234,-22.88,-27.529
21246,-23.8,-27.526
21258,-20.094,-27.683
21270,-19.868,-27.204
21281,-22.824,-25.283
21293,-25.056,-24.709
21305,-26.687,-26.224
21316,-23.635,-24.48
21328,-22.446,-24.738
21340,-22.249,-25.51
21352,-23.556,-25.109
21363,-26.809,-25.14
21375,-25.854,-28.409
21387,-24.74,-24.722
21398,-24.926,-24.855
21410,-21.606,-26.04
21422,-21.56,-27.564
21434,-22.84,-26.982
21445,-23.197,-25.238
21457,-21.166,-24.949
21469,-20.122,-25.398
21480,-22.272,-26.326
21492,-23.314,-26.485
21504,-24.609,-26.282
21516,-25.086,-25.903
21527,-26.498,-24.385
21539,-24.866,-24.477
21551,-23.556,-23.036
21563,-24.228,-26.899
21574,-24.802,-24.744
21586,-26.637,-24.635
21598,-25.845,-30.662
21609,-24.121,-27.209
21621,-23.787,-27.622
21633,-25.712,-26.769
21645,-24.848,-26.407
21656,-25.596,-24.796
21668,-25.187,-25.163
21680,-24.789,-25.028
21691,-26.407,-24.408
21703,-23.678,-29.42
21715,-24.01,-27.327
21727,-25.223,-25.847
21738,-21.405,-29.137
21750,-24.231,-31.082
21762,-22.973,-30.027
21773,-22.546,-29.668
21785,-23.846,-31.023
21797,-24.152,-32.505
21809,-22.597,-31.359
21820,-21.626,-31.058
21832,-22.649,-26.923
21844,-23.953,-25.58
21855,-24.96,-28.421
21867,-25.619,-26.651
21879,-26.318,-29.072
21891,-24.632,-30.074
21902,-25.135,-27.342
21914,-25.187,-27.388
21926,-21.314,-30.351
21938,-23.201,-26.858
21949,-25.915,-26.104
21961,-22.776,-24.859
21973,-25.029,-26.285
21984,-25.254,-25.084
21996,-23.743,-23.337
22008,-24.872,-25.859
22020,-24.88,-28.352
22031,-24.087,-28.081
22043,-23.836,-29.077
22055,-21.859,-27.242
22066,-26.808,-27.518
22078,-24.788,-28.212
22090,-22.91,-25.953
22102,-23.13,-28.633
22113,-25.489,-29.204
22125,-25.722,-30.655
22137,-24.44,-29.932
22148,-28.669,-26.037
22160,-24.832,-28.197
22172,-22.045,-27.58
22184,-22.264,-24.843
22195,-25.678,-27.358
22207,-26.348,-29.731
22219,-24.997,-27.982
22230,-25.062,-26.657
22242,-26.501,-24.765
22254,-27.726,-25.042
22266,-24.612,-26.388
22277,-26.366,-27.684
22289,-28.132,-28.893
22301,-26.936,-26.35
22313,-22.982,-24.961
22324,-27.176,-26.948
22336,-27.921,-26.388
22348,-25.019,-27.252
22359,-24.807,-29.153
22371,-26.541,-28.467
22383,-26.082,-29.519
22395,-26.566,-30.611
22406,-26.464,-28.143
22418,-26.361,-29.084
22430,-28.552,-29.443
22441,-26.492,-27.547
22453,-24.215,-28.784
22465,-24.969,-27.247
22477,-27.279,-24.952
22488,-26.909,-27.186
22500,-25.864,-31.116
22512,-23.877,-30.957
22523,-23.427,-29.191
22535,-27.155,-27.788
22547,-26.692,-30.412
22559,-25.657,-28.632
22570,-26.797,-28.02
22582,-28.5,-26.778
22594,-27.517,-29.381
22605,-27.402,-32.49
22617,-28.089,-30.043
22629,-25.736,-27.096
22641,-23.286,-26.305
22652,-25.978,-26.708
22664,-29.649,-28.041
22676,-25.387,-27.921
22688,-24.436,-28.044
22699,-27.122,-25.206
22711,-25.735,-27.471
22723,-24.599,-28.721
22734,-25.605,-29.35
22746,-27.31,-26.866
22758,-26.723,-23.176
22770,-25.496,-25.535
22781,-25.837,-29.117
22793,-26.897,-29.763
22805,-27.275,-26.572
22816,-25.56,-25.826
22828,-25.428,-26.634
22840,-29.108,-27.501
22852,-26,-29.541
22863,-27.242,-29.09
22875,-27.929,-27.54
22887,-26.611,-29.416
22898,-23.787,-30.65
22910,-23.368,-28.912
22922,-24.377,-26.267
22934,-26.073,-26.583
22945,-26.268,-25.05
22957,-27.828,-25.75
22969,-27.731,-28.858
22980,-28.229,-28.661
22992,-28.956,-29.532
23004,-28.389,-27.881
23016,-28.797,-27.687
23027,-30.385,-27.176
23039,-26.04,-25.159
23051,-24.587,-25.336
23063,-25.843,-26.434
23074,-25.787,-27.894
23086,-27.605,-27.564
23098,-26.038,-29.37
23109,-25.721,-31.159
23121,-29.21,-32.143
23133,-28.85,-29.86
23145,-27.104,-28.896
23156,-29.454,-27.415
23168,-27.559,-28.524
23180,-26.335,-28.094
23191,-25.873,-28.713
23203,-28.127,-31.753
23215,-26.826,-28.639
23227,-25.332,-25.005
23238,-26.818,-25.561
23250,-26.623,-25.563
23262,-22.949,-26.253
23273,-23.978,-27.547
23285,-25.58,-31.262
23297,-22.61,-28.266
23309,-23.999,-28.924
23320,-25.777,-27.244
23332,-27.513,-27.886
23344,-26.881,-28.193
23355,-26.935,-25.111
23367,-29.553,-24.12
23379,-29.652,-28.213
23391,-27.444,-28.957
23402,-29.301,-26.674
23414,-32.936,-27.458
23426,-30.42,-28.407
23438,-27.517,-27.571
23449,-25.595,-28.781
23461,-25.511,-28.606
23473,-25.23,-25.994
23484,-24.959,-27.901
23496,-24.387,-28.836
23508,-26.263,-27.441
23520,-27.253,-28.671
23531,-28.018,-30.589
23543,-28.555,-30.854
23555,-27.22,-28.381
23566,-26.056,-27.596
23578,-27.728,-28.888
23590,-28.144,-28.797
23602,-26.842,-28.053
23613,-27.508,-27.402
23625,-28.108,-28.537
23637,-25.071,-32.948
23648,-24.857,-28.919
23660,-25.626,-28.302
23672,-23.583,-30.065
23684,-24.448,-28.975
23695,-26.13,-27.183
23707,-26.9,-26.172
23719,-25.379,-27.407
23730,-27.018,-28.404
23742,-25.703,-30.149
23754,-25.992,-29.577
23766,-26.629,-27.44
23777,-29.696,-27.108
23789,-30.506,-30.156
23801,-27.704,-28.112
23813,-28.255,-27.453
23824,-28.875,-30.168
23836,-25.232,-28.104
23848,-24.94,-30.798
23859,-26.931,-31.094
23871,-27.136,-31.703
23883,-28.069,-30.514
23895,-28.875,-27.442
23906,-27.729,-26.848
23918,-26.339,-28.831
23930,-24.384,-28.034
23941,-27.235,-27.417
23953,-28.594,-27.584
23965,-25.694,-27.135
23977,-28.251,-30.84
23988,-29.2,-26.029
