FFT,Power Spectrum
Frequency[Hz],Level-L[dB],Level-R[dB]
11.719,-21.187,-24.977
23.438,-0.76436,-3.8598
35.156,-1.1036,0.49345
46.875,0.21327,2.3494
58.594,1.4793,3.779
70.313,3.0377,3.0026
82.031,4.638,4.0015
93.75,11.683,8.2493
105.47,11.687,9.8816
117.19,5.3857,9.8764
128.91,13.129,12.031
140.63,14.473,12.019
152.34,6.9613,9.6645
164.06,1.62,8.2505
175.78,3.429,10.511
187.5,9.188,9.271
199.22,12.756,11.901
210.94,6.6387,11.6
222.66,10.108,13.129
234.38,11.393,12.751
246.09,6.6137,11
257.81,5.9368,10.181
269.53,8.0399,7.9802
281.25,11.617,10.767
292.97,8.9651,9.7747
304.69,7.3526,8.1082
316.41,6.9581,10.072
328.13,6.4984,10.487
339.84,5.8367,11.255
351.56,5.6844,12.606
363.28,4.1621,13.859
375,6.3458,14.609
386.72,6.7357,10.856
398.44,7.2773,11.301
410.16,5.6734,11.598
421.88,6.4054,12.696
433.59,6.9045,10.682
445.31,9.1068,12.85
457.03,8.0782,13.887
468.75,6.3885,8.6114
480.47,3.3712,11.408
492.19,2.9561,13.301
503.91,3.9926,13.075
515.63,5.884,13.013
527.34,6.4285,13.736
539.06,1.8909,12.053
550.78,5.2742,12.559
562.5,5.4692,13.531
574.22,2.9571,11.821
585.94,4.2239,10.912
597.66,8.8414,13.564
609.38,5.6442,13.426
621.09,4.3936,13.13
632.81,4.6615,11.027
644.53,3.4259,12.183
656.25,0.089689,13.082
667.97,4.8585,12.442
679.69,8.357,12.903
691.41,6.0299,11.116
703.13,5.7181,11.197
714.84,2.983,13.928
726.56,2.3228,12.198
738.28,3.8581,13.389
750,4.3551,12.945
761.72,4.2821,13.177
773.44,4.4536,15.803
785.16,4.7263,14.661
796.88,4.7808,10.806
808.59,4.6897,10.761
820.31,4.2175,6.4328
832.03,5.4814,13.828
843.75,5.739,15.98
855.47,6.5876,10.78
867.19,7.742,10.454
878.91,8.1487,12.313
890.63,5.397,12.352
902.34,5.6014,14.486
914.06,4.2664,14.711
925.78,1.6666,10.863
937.5,1.901,9.644
949.22,5.2331,12.009
960.94,7.3536,14.326
972.66,7.9407,13.746
984.38,6.2309,13.842
996.09,6.2935,14.452
1007.8,4.8578,12.373
1019.5,6.6937,15.188
1031.3,3.9093,13.405
1043,4.7198,10.922
1054.7,2.5792,9.4087
1066.4,2.7015,10.397
1078.1,3.2235,13.211
1089.8,3.963,11.488
1101.6,7.1721,11.469
1113.3,9.4121,12.52
1125,6.8773,12.446
1136.7,7.1363,14.648
1148.4,7.8822,16.555
1160.2,6.8588,14.29
1171.9,6.895,12.441
1183.6,5.8454,11.588
1195.3,4.0088,10.968
1207,3.3095,8.865
1218.8,5.3581,11.01
1230.5,3.6746,11.97
1242.2,3.6372,8.1579
1253.9,3.941,9.2718
1265.6,2.9115,9.0202
1277.3,0.90727,11.095
1289.1,4.0909,12.129
1300.8,5.3058,8.978
1312.5,6.3792,10.573
1324.2,4.3021,9.2198
1335.9,3.1682,9.5117
1347.7,2.8122,7.6884
1359.4,4.0613,10.124
1371.1,0.58868,10.557
1382.8,0.36376,11.314
1394.5,2.8485,11.632
1406.3,2.907,9.4651
1418,2.4896,14.04
1429.7,3.6815,12.167
1441.4,5.0094,7.3712
1453.1,3.9705,10.476
1464.8,4.2556,9.6177
1476.6,6.9194,9.3747
1488.3,6.945,8.9301
1500,5.7274,8.6291
1511.7,6.5908,8.3508
1523.4,3.626,12.09
1535.2,2.1102,12.887
1546.9,1.5084,8.8199
1558.6,1.5553,7.5175
1570.3,4.256,10.328
1582,3.9689,9.3225
1593.8,-0.015164,11.869
1605.5,3.9413,11.096
1617.2,3.093,10.493
1628.9,5.1558,9.3639
1640.6,4.2363,8.921
1652.3,6.8747,8.3782
1664.1,7.9771,8.1825
1675.8,4.1102,7.3493
1687.5,0.63121,8.1846
1699.2,-0.4202,8.4411
1710.9,2.966,11.042
1722.7,4.3273,9.1473
1734.4,2.7453,5.656
1746.1,4.2559,5.8723
1757.8,3.56,5.7495
1769.5,2.4189,7.1111
1781.3,-2.0811,6.6764
1793,2.4263,10.287
1804.7,5.9014,9.9471
1816.4,6.517,7.8632
1828.1,6.5803,5.7741
1839.8,4.3708,10.715
1851.6,2.6169,11.994
1863.3,2.1004,8.0776
1875,0.91868,8.1905
1886.7,3.3227,9.1765
1898.4,3.1873,11.466
1910.2,1.7775,10.357
1921.9,1.1651,9.2202
1933.6,-1.5216,7.5032
1945.3,-0.4385,6.7834
1957,2.446,8.8536
1968.8,0.49302,10.202
1980.5,1.0288,9.969
1992.2,-0.96172,11.047
2003.9,2.2415,12.679
2015.6,1.9993,10.577
2027.3,1.9668,8.5316
2039.1,1.1682,9.8966
2050.8,-0.57448,7.4273
2062.5,2.6135,5.7688
2074.2,1.2078,7.0268
2085.9,2.6057,9.7139
2097.7,6.414,9.0691
2109.4,6.923,7.748
2121.1,5.159,9.8858
2132.8,3.399,11.269
2144.5,1.4775,10.346
2156.3,1.4163,8.8859
2168,0.93124,9.2454
2179.7,2.7689,8.1587
2191.4,0.46785,7.4202
2203.1,2.6302,8.5
2214.8,0.14225,9.3053
2226.6,1.6717,10.441
2238.3,1.9163,10.129
2250,1.9674,12.272
2261.7,3.9919,12.112
2273.4,2.8913,9.0064
2285.2,2.1915,9.0127
2296.9,3.7256,11.68
2308.6,1.4789,10.781
2320.3,-1.1209,8.6838
2332,6.4504,7.2401
2343.8,6.5554,6.9339
2355.5,1.7866,8.3079
2367.2,2.9066,10.422
2378.9,3.5476,10.502
2390.6,-0.43777,7.2051
2402.3,0.4642,8.1126
2414.1,0.27989,6.6901
2425.8,2.3034,7.2152
2437.5,3.2923,10.032
2449.2,1.8165,8.7013
2460.9,0.52652,7.9995
2472.7,0.54298,8.5508
2484.4,0.66898,7.1176
2496.1,2.2679,8.2401
2507.8,0.89709,10.605
2519.5,3.5192,9.3148
2531.3,0.44588,6.4383
2543,2.952,10.514
2554.7,-0.23655,10.174
2566.4,0.31135,7.8145
2578.1,-1.4632,6.216
2589.8,-2.3979,7.7329
2601.6,-2.4368,9.4579
2613.3,0.17052,9.4001
2625,0.73759,8.4237
2636.7,1.42,8.0573
2648.4,2.1164,6.3148
2660.2,2.9775,5.5604
2671.9,2.6041,9.4587
2683.6,-1.1192,8.3253
2695.3,0.23842,9.0108
2707,2.5419,10.183
2718.8,1.2843,5.6031
2730.5,-1.4825,5.1275
2742.2,-2.2563,8.6411
2753.9,0.85189,9.369
2765.6,1.879,4.7872
2777.3,2.2132,4.0073
2789.1,3.0474,7.8037
2800.8,5.479,6.6816
2812.5,4.0127,7.4234
2824.2,0.1431,10.63
2835.9,-2.2801,9.9073
2847.7,-4.8417,5.5706
2859.4,-3.329,4.3376
2871.1,-1.5761,7.8061
2882.8,0.86414,8.0123
2894.5,1.1787,9.4616
2906.3,0.47853,7.1608
2918,1.2547,1.4575
2929.7,1.1742,4.738
2941.4,0.30525,7.9632
2953.1,0.42891,8.1506
2964.8,-1.3858,7.6896
2976.6,-2.9795,5.4509
2988.3,-5.1535,4.9217
3000,0.20161,5.3162
3011.7,2.1248,5.8165
3023.4,-1.445,4.5562
3035.2,-0.74552,9.7125
3046.9,0.14932,8.7668
3058.6,-0.69038,2.5118
3070.3,1.2987,4.6034
3082,1.2085,7.7373
3093.8,0.093469,5.7919
3105.5,-2.1686,5.3339
3117.2,-3.8118,6.0508
3128.9,-2.3998,4.2945
3140.6,-2.3195,6.225
3152.3,-1.593,8.1481
3164.1,-1.6741,6.2209
3175.8,0.10182,5.2127
3187.5,0.74953,4.4823
3199.2,0.048828,4.7814
3210.9,1.0574,5.468
3222.7,2.2963,6.3136
3234.4,-0.77464,6.0064
3246.1,-0.63486,7.0321
3257.8,-2.7132,7.7705
3269.5,-0.74039,5.7431
3281.3,-1.5505,6.86
3293,-3.5478,6.4856
3304.7,-2.9032,5.3557
3316.4,-2.0306,3.5019
3328.1,-1.2114,2.7713
3339.8,-3.3479,3.5393
3351.6,0.3023,3.7116
3363.3,1.8277,5.2091
3375,-1.3393,5.6836
3386.7,-0.83681,5.1824
3398.4,-0.2152,7.542
3410.2,-1.2075,5.6706
3421.9,-0.59155,4.7709
3433.6,-0.098593,5.7169
3445.3,-0.1604,8.4086
3457,0.42405,7.1834
3468.8,-0.91248,3.5355
3480.5,-1.4252,5.9529
3492.2,-1.58,8.3447
3503.9,-2.247,7.5571
3515.6,-0.21195,4.2194
3527.3,-1.6409,4.2712
3539.1,-1.1505,4.7586
3550.8,-1.5113,5.1358
3562.5,-0.39756,3.392
3574.2,0.13835,5.8605
3585.9,-1.6913,7.6739
3597.7,0.2722,6.7743
3609.4,1.349,5.1287
3621.1,1.6767,-0.72001
3632.8,0.46966,0.48036
3644.5,-3.6528,1.7952
3656.3,-3.5812,2.1579
3668,-0.74283,4.7319
3679.7,-1.7706,5.3752
3691.4,-0.051047,6.7544
3703.1,-1.0037,7.8015
3714.8,-2.649,6.535
3726.6,-2.419,5.767
3738.3,-1.2417,4.5738
3750,-1.8367,4.7891
3761.7,-0.3258,6.234
3773.4,-0.9401,4.3291
3785.2,-1.6472,2.7096
3796.9,-2.8633,3.2923
3808.6,-1.8973,3.0841
3820.3,-0.91154,3.7736
3832,1.5162,5.5137
3843.8,-0.32944,4.5794
3855.5,-0.074004,4.4279
3867.2,0.22542,4.5487
3878.9,-1.7904,7.7826
3890.6,-1.5182,9.8959
3902.3,-2.8761,8.9605
3914.1,-1.4615,6.3169
3925.8,-1.5831,7.1437
3937.5,0.26156,6.6933
3949.2,0.75525,3.8723
3960.9,-1.0375,7.8
3972.7,-0.83632,8.8699
3984.4,-1.3756,8.1419
3996.1,-4.6882,6.7475
4007.8,-5.2113,4.8384
4019.5,-7.014,3.9098
4031.3,-6.4076,7.238
4043,-4.3067,6.6048
4054.7,-3.0907,3.0881
4066.4,0.15617,5.641
4078.1,-2.5285,6.731
4089.8,-1.5159,4.1086
4101.6,-2.0065,3.2286
4113.3,-1.5867,3.2356
4125,-2.9771,5.4163
4136.7,-5.0531,5.8386
4148.4,-0.22852,5.2626
4160.2,1.0844,4.3125
4171.9,0.31333,5.643
4183.6,-0.71737,7.6649
4195.3,-3.899,7.5609
4207,-1.3226,4.0847
4218.8,-2.6445,2.0831
4230.5,-3.5602,2.0986
4242.2,-2.6378,2.7585
4253.9,-0.13964,2.7729
4265.6,-2.2334,4.3309
4277.3,-5.6448,2.9598
4289.1,-2.8225,3.5244
4300.8,-1.0728,3.5417
4312.5,-3.4799,4.9074
4324.2,-4.4612,7.7131
4335.9,-4.4122,4.4629
4347.7,-3.2164,0.27956
4359.4,-2.5748,3.1591
4371.1,-2.6358,6.2064
4382.8,-0.87703,5.6606
4394.5,-1.5921,3.2201
4406.3,-3.2753,3.3662
4418,-3.2137,5.3356
4429.7,-1.8089,3.2848
4441.4,-2.7571,3.0289
4453.1,0.0089459,6.1115
4464.8,-0.279,5.1783
4476.6,-3.1794,-0.26647
4488.3,-2.1571,3.9187
4500,0.5975,5.2579
4511.7,-0.29054,5.164
4523.4,-5.3654,5.1653
4535.2,-4.8574,2.9454
4546.9,-1.042,3.6259
4558.6,-0.56525,5.2272
4570.3,-3.1654,3.815
4582,-2.7822,4.5702
4593.8,-2.0268,2.6263
4605.5,-3.2858,3.0369
4617.2,-3.0737,4.9133
4628.9,-5.239,3.7792
4640.6,-4.978,3.2118
4652.3,-2.399,0.8315
4664.1,-2.5563,6.4244
4675.8,-3.0764,6.2608
4687.5,-3.0055,3.726
4699.2,-0.19046,1.3588
4710.9,-0.71498,3.5124
4722.7,-4.0484,4.2446
4734.4,-2.815,2.6638
4746.1,-6.6247,0.15413
4757.8,-6.1265,5.221
4769.5,-6.8717,7.8378
4781.3,-5.0474,5.0767
4793,-5.2718,2.8937
4804.7,-2.6506,2.424
4816.4,-4.6936,5.5189
4828.1,-1.3309,1.9786
4839.8,0.46205,1.3434
4851.6,-1.1988,2.9285
4863.3,-3.3324,4.1891
4875,-3.2758,4.6556
4886.7,-3.1761,3.5535
4898.4,-4.8014,2.625
4910.2,-1.6886,4.5292
4921.9,-2.0301,4.6801
4933.6,-4.32,2.9411
4945.3,-4.438,0.91662
4957,-2.9502,1.7702
4968.8,-1.8774,3.2548
4980.5,-4.9482,4.1574
4992.2,-7.7998,1.1746
5003.9,-4.2627,2.4272
5015.6,-3.4318,3.8504
5027.3,-3.4328,4.2536
5039.1,-3.7509,4.3036
5050.8,-5.689,4.5141
5062.5,-4.2841,3.1921
5074.2,-3.6027,2.8191
5085.9,-5.0959,2.939
5097.7,-4.9885,5.6774
5109.4,-3.7295,7.4274
5121.1,-2.445,3.623
5132.8,-4.7479,-1.1345
5144.5,-7.3,4.7623
5156.3,-4.6323,4.5224
5168,-2.4283,2.355
5179.7,-2.8086,-1.0191
5191.4,-1.3166,1.4313
5203.1,-0.11412,4.1542
5214.8,-3.648,4.2516
5226.6,-3.9214,1.5558
5238.3,-2.3084,-3.0615
5250,-1.5596,3.5661
5261.7,-1.6865,3.6823
5273.4,-3.0696,2.0992
5285.2,-4.3478,2.0916
5296.9,-2.972,5.4863
5308.6,-3.9865,3.6677
5320.3,-3.514,3.0055
5332,-3.0019,3.2511
5343.8,-3.383,0.73624
5355.5,-4.5319,2.8912
5367.2,-4.8015,3.5012
5378.9,-4.2878,0.9867
5390.6,-3.1927,0.64774
5402.3,-2.6199,1.6283
5414.1,-3.5346,2.8385
5425.8,-7.2824,-0.10892
5437.5,-4.0671,3.3092
5449.2,-5.005,1.1007
5460.9,-5.0062,2.9852
5472.7,-5.4747,5.2902
5484.4,-3.3009,1.3696
5496.1,-3.1879,7.389
5507.8,-6.2427,9.3048
5519.5,-4.5774,5.2305
5531.3,-4.5373,3.0271
5543,-6.7999,3.811
5554.7,-4.4825,1.6486
5566.4,-3.2537,1.4398
5578.1,-3.8817,2.201
5589.8,-2.8481,0.33308
5601.6,-4.1766,0.70889
5613.3,-3.9708,2.6841
5625,-4.7231,1.657
5636.7,-3.7434,-1.4387
5648.4,-7.0501,2.8489
5660.2,-5.1191,2.7727
5671.9,-2.5055,5.2208
5683.6,-2.6863,5.3843
5695.3,-4.7821,3.8174
5707,-6.335,3.0536
5718.8,-7.1433,3.4974
5730.5,-7.2164,3.9633
5742.2,-3.2976,2.9356
5753.9,-3.2874,2.353
5765.6,-7.7735,3.8969
5777.3,-5.6149,0.57338
5789.1,-5.5745,-0.27476
5800.8,-7.5009,4.0037
5812.5,-5.4007,5.0548
5824.2,-3.6827,0.20412
5835.9,-2.6014,-1.4413
5847.7,-3.0885,1.4012
5859.4,-6.0353,4.97
5871.1,-4.4605,3.4361
5882.8,-4.7228,4.396
5894.5,-4.961,6.3991
5906.3,-5.1431,4.1467
5918,-3.9653,1.2577
5929.7,-5.5392,-1.7261
5941.4,-6.9375,-0.20646
5953.1,-6.5808,0.50147
5964.8,-5.9182,0.62566
5976.6,-5.2132,1.4308
5988.3,-6.3757,1.0064
6000,-5.6732,1.6867
6011.7,-3.444,0.058304
6023.4,-5.5777,2.4061
6035.2,-1.9031,1.9303
6046.9,-1.5691,0.029884
6058.6,-5.6384,4.8085
6070.3,-6.9646,4.5878
6082,-6.148,2.3701
6093.8,-3.1124,0.79206
6105.5,-1.6086,4.272
6117.2,-2.5161,4.0787
6128.9,-6.2477,2.544
6140.6,-7.3916,-1.8703
6152.3,-7.2415,3.3915
6164.1,-6.4096,3.4781
6175.8,-4.5123,5.1006
6187.5,-5.5388,7.4536
6199.2,-6.4346,3.8501
6210.9,-6.6616,-1.0673
6222.7,-5.847,0.9061
6234.4,-4.995,-0.33004
6246.1,-5.2653,3.0299
6257.8,-5.0081,2.138
6269.5,-4.9583,2.2216
6281.3,-5.618,3.6429
6293,-9.1686,4.9647
6304.7,-6.1254,3.6749
6316.4,-3.8607,2.4814
6328.1,-3.5431,4.121
6339.8,-3.6508,4.4299
6351.6,-2.9324,4.0067
6363.3,-5.8397,1.2152
6375,-6.6781,0.69794
6386.7,-9.1322,4.2126
6398.4,-6.5296,3.9916
6410.2,-4.2459,1.7285
6421.9,-3.4461,-0.1547
6433.6,-3.5016,0.1889
6445.3,-7.1922,-0.88459
6457,-8.2935,-0.82654
6468.8,-4.3795,-1.0822
6480.5,-2.9992,-4.6587
6492.2,-2.9663,-0.79576
6503.9,-5.1559,0.92035
6515.6,-5.9237,0.53329
6527.3,-4.681,0.0479
6539.1,-6.0624,1.1419
6550.8,-7.863,2.9626
6562.5,-8.6025,1.9994
6574.2,-8.8967,2.7572
6585.9,-6.1704,-0.11544
6597.7,-4.6744,0.58415
6609.4,-4.4889,1.1911
6621.1,-5.1993,-2.2617
6632.8,-7.8004,1.7832
6644.5,-6.4661,2.4995
6656.3,-6.5789,3.2479
6668,-6.8608,1.1259
6679.7,-6.545,2.3653
6691.4,-6.027,2.7776
6703.1,-4.2612,3.626
6714.8,-7.7705,3.1421
6726.6,-4.6034,-0.07656
6738.3,-4.0329,-2.7556
6750,-5.6259,0.23962
6761.7,-3.0817,2.1285
6773.4,-3.7621,1.6091
6785.2,-4.6098,-0.35326
6796.9,-4.9138,0.35583
6808.6,-7.539,1.018
6820.3,-4.6894,1.3926
6832,-7.1127,-0.25171
6843.8,-5.5531,0.18364
6855.5,-4.0583,0.91915
6867.2,-3.489,0.9634
6878.9,-5.4657,4.6642
6890.6,-5.3755,3.3034
6902.3,-6.5256,2.4065
6914.1,-5.3505,2.2828
6925.8,-3.7486,0.87745
6937.5,-5.7701,1.0279
6949.2,-1.9548,-0.74838
6960.9,-3.8288,1.0796
6972.7,-5.7306,1.8015
6984.4,-2.7477,-1.3853
6996.1,-2.9896,-0.55861
7007.8,-0.87609,0.17946
7019.5,-1.457,1.3875
7031.3,-5.2916,1.9578
7043,-4.6349,0.68152
7054.7,-1.405,0.83579
7066.4,0.48144,0.87644
7078.1,-2.44,-0.57985
7089.8,-6.4862,1.5445
7101.6,-5.3826,3.5155
7113.3,-2.1407,1.3157
7125,-1.7164,-0.19694
7136.7,-4.504,0.87482
7148.4,-3.9846,1.4783
7160.2,-1.3113,0.93522
7171.9,-0.39535,2.6786
7183.6,0.90319,0.088411
7195.3,2.6474,-0.73863
7207,1.1494,-1.2228
7218.8,0.79747,-1.6334
7230.5,2.4298,0.75154
7242.2,2.6546,3.3413
7253.9,1.7463,4.4595
7265.6,3.899,2.9461
7277.3,3.9098,2.9905
7289.1,6.2082,-1.447
7300.8,6.4108,1.9406
7312.5,2.1959,5.6391
7324.2,2.9987,1.6069
7335.9,5.5285,1.5633
7347.7,6.2386,-1.5978
7359.4,8.5777,-1.6394
7371.1,8.514,-1.3597
7382.8,11.031,-0.8594
7394.5,11.111,0.36754
7406.3,11.78,-0.89385
7418,12.89,-0.25465
7429.7,15.501,-0.87281
7441.4,15.976,-1.8857
7453.1,19.046,0.85455
7464.8,20.44,-1.2755
7476.6,25.599,1.005
7488.3,32.199,5.5187
7500,37.746,11.386
7511.7,61.459,34.546
7523.4,65.944,39.03
7535.2,58.438,31.512
7546.9,35.284,9.2515
7558.6,30.723,5.0567
7570.3,23.93,3.6796
7582,19.46,2.9481
7593.8,17.272,0.39696
7605.5,15.112,2.9025
7617.2,14.442,2.578
7628.9,12.751,-1.5158
7640.6,9.5853,-1.4682
7652.3,9.1658,-0.77056
7664.1,8.3853,1.1301
7675.8,7.0122,0.40596
7687.5,5.7381,-2.1624
7699.2,4.0339,0.65753
7710.9,3.7223,0.6277
7722.7,2.0199,-0.24906
7734.4,2.7556,-1.8274
7746.1,6.1427,-2.1638
7757.8,4.7463,-3.0132
7769.5,3.7391,0.3023
7781.3,2.298,0.38148
7793,-1.4621,-3.0841
7804.7,-0.73558,-0.35699
7816.4,-0.050441,-0.49497
7828.1,-2.0081,0.67396
7839.8,-2.4595,0.14668
7851.6,0.57044,-1.1748
7863.3,-2.5497,-1.818
7875,-4.3187,-1.4424
7886.7,-5.3082,-0.89488
7898.4,-6.61,-0.60898
7910.2,-4.2744,1.1738
7921.9,-3.1969,3.1738
7933.6,-4.5457,2.2858
7945.3,-6.3241,0.52635
7957,-5.7707,-0.97709
7968.8,-6.6673,0.097347
7980.5,-7.4439,-0.57023
7992.2,-9.4563,-1.8509
8003.9,-7.4132,-0.39232
8015.6,-4.2074,-0.31397
8027.3,-4.7587,-2.0638
8039.1,-4.1776,-1.1235
8050.8,-4.8556,-0.38272
8062.5,-4.8575,2.0199
8074.2,-6.6699,2.473
8085.9,-9.5563,0.83244
8097.7,-6.8676,0.95785
8109.4,-5.6106,-2.4656
8121.1,-6.243,-3.1949
8132.8,-4.6268,-1.4564
8144.5,-6.0498,-0.84035
8156.3,-4.1003,-2.7022
8168,-3.5165,-5.1496
8179.7,-3.1105,-1.3666
8191.4,-6.08,0.69779
8203.1,-8.6218,1.9307
8214.8,-6.3244,3.0636
8226.6,-4.4281,3.4719
8238.3,-3.7216,3.4287
8250,-5.8123,3.3477
8261.7,-5.303,2.5389
8273.4,-7.8325,-0.017505
8285.2,-7.6379,-1.175
8296.9,-6.4847,-1.8952
8308.6,-9.2859,-4.1066
8320.3,-8.6106,-4.7085
8332,-8.0324,0.41283
8343.8,-6.294,0.36893
8355.5,-6.3346,0.47201
8367.2,-11.84,-1.6648
8378.9,-8.5427,-5.0218
8390.6,-6.3062,-4.9486
8402.3,-6.5225,-2.0486
8414.1,-10.443,-0.60475
8425.8,-12.749,-0.53232
8437.5,-12.255,-0.53441
8449.2,-10.346,-1.8652
8460.9,-9.6755,-1.9033
8472.7,-8.9783,-0.21285
8484.4,-10.096,3.3283
8496.1,-10.086,2.5857
8507.8,-11.469,-1.0568
8519.5,-8.1755,-2.8409
8531.3,-6.9405,1.6525
8543,-8.3911,-0.66976
8554.7,-10.312,-1.0666
8566.4,-10.609,-1.2535
8578.1,-11.069,-1.3457
8589.8,-10.442,-3.8636
8601.6,-9.4367,-1.6785
8613.3,-8.7955,-4.4046
8625,-7.2808,-3.3077
8636.7,-8.5102,0.03369
8648.4,-11.974,-0.90787
8660.2,-12.705,-1.5252
8671.9,-12.875,0.12913
8683.6,-10.118,0.19861
8695.3,-9.7401,-0.14762
8707,-11.446,0.35614
8718.8,-11.198,0.1692
8730.5,-9.2809,-2.0775
8742.2,-9.0702,-3.6265
8753.9,-8.8791,-4.9144
8765.6,-8.7737,-3.8765
8777.3,-13.023,-1.2871
8789.1,-10.17,-1.729
8800.8,-11.83,-2.1257
8812.5,-13.335,-1.5321
8824.2,-8.9895,-1.3195
8835.9,-6.7555,-2.0208
8847.7,-5.684,-0.77359
8859.4,-8.7087,-2.8009
8871.1,-10.336,-0.72609
8882.8,-10.781,-0.7866
8894.5,-9.9299,0.81025
8906.3,-7.6091,1.0181
8918,-8.0734,-1.775
8929.7,-10.076,1.3694
8941.4,-9.3124,1.9528
8953.1,-9.6721,-0.18114
8964.8,-12.773,-0.29972
8976.6,-12.678,-2.4866
8988.3,-9.1289,-0.40791
9000,-11.075,0.75352
9011.7,-12.005,0.65492
9023.4,-7.8193,-1.9405
9035.2,-11.529,-0.92102
9046.9,-13.805,-0.68526
9058.6,-12.272,-0.26227
9070.3,-14.19,-2.9939
9082,-11.199,-4.8556
9093.8,-9.6491,-2.7053
9105.5,-10.487,-4.1257
9117.2,-11.863,-0.35978
9128.9,-9.3282,0.30427
9140.6,-11.902,-1.2966
9152.3,-13.399,-3.2672
9164.1,-12.841,-4.4581
9175.8,-12.416,-3.5381
9187.5,-9.6669,-0.48037
9199.2,-8.4741,0.36519
9210.9,-10.216,-1.8435
9222.7,-11.139,-1.6341
9234.4,-11.203,0.10014
9246.1,-9.3152,1.7178
9257.8,-9.8667,0.23042
9269.5,-9.8166,-2.3305
9281.3,-9.8548,-5.4875
9293,-11.038,-2.1493
9304.7,-11.992,-2.8394
9316.4,-9.3045,-1.4811
9328.1,-7.4695,-0.53684
9339.8,-7.9506,-0.70355
9351.6,-10.339,-0.95294
9363.3,-9.3688,-0.73453
9375,-9.7306,-4.4814
9386.7,-8.0283,-4.5612
9398.4,-9.1075,-0.626
9410.2,-10.238,-2.447
9421.9,-11.641,-2.8168
9433.6,-10.847,-2.3102
9445.3,-10.132,0.15384
9457,-11.629,-2.6965
9468.8,-10.292,-5.3743
9480.5,-11.065,-3.4693
9492.2,-11.816,-3.765
9503.9,-9.802,-3.1622
9515.6,-10.024,-3.6443
9527.3,-11.089,-4.6301
9539.1,-9.5937,-3.1866
9550.8,-6.9296,-0.67032
9562.5,-8.2784,-1.666
9574.2,-9.7421,-5.0768
9585.9,-10.663,-3.426
9597.7,-11.9,-2.1093
9609.4,-11.221,-3.9299
9621.1,-11.603,-3.4716
9632.8,-10.946,-6.9355
9644.5,-11.038,-5.1705
9656.3,-11.272,-7.5496
9668,-11.771,-2.1437
9679.7,-12.077,-2.7043
9691.4,-11.987,-5.4276
9703.1,-11.242,-3.3469
9714.8,-11.224,-3.4682
9726.6,-13.385,-2.5869
9738.3,-13.273,-4.0692
9750,-13.96,-7.6148
9761.7,-10.762,-7.3179
9773.4,-9.4108,-6.6146
9785.2,-11.219,-5.025
9796.9,-13.299,-5.5057
9808.6,-14.332,-3.2928
9820.3,-14.592,-1.3657
9832,-12.218,-1.1952
9843.8,-10.279,-2.1992
9855.5,-9.9041,-1.8392
9867.2,-11.335,-0.9245
9878.9,-14.43,-4.2743
9890.6,-13.702,-6.3788
9902.3,-12.429,-4.5456
9914.1,-12.435,-4.5577
9925.8,-13.057,-4.1011
9937.5,-12.428,-3.3529
9949.2,-10.188,-0.94531
9960.9,-9.9185,-2.813
9972.7,-13.806,-3.4664
9984.4,-13.255,-0.063034
9996.1,-12.377,-2.0609
10008,-12.108,-1.5565
10020,-13.129,-3.7539
10031,-11.728,-3.9408
10043,-12.588,-2.5046
10055,-13.158,-2.67
10066,-9.8563,-4.6851
10078,-11.278,-5.7668
10090,-13.184,-3.7431
10102,-13.002,-3.0859
10113,-12.426,-4.4231
10125,-12.995,-4.456
10137,-12.783,-2.2263
10148,-10.498,-3.1481
10160,-10.557,-3.2108
10172,-9.305,-0.41223
10184,-10.913,-3.8764
10195,-10.953,-5.2425
10207,-12.994,-6.1617
10219,-13.668,-7.0327
10230,-11.606,-5.2373
10242,-11.394,-2.5189
10254,-14.116,-4.0847
10266,-14.761,-5.4159
10277,-12.712,-5.1461
10289,-11.622,-3.923
10301,-11.866,-4.9043
10313,-12.508,-5.1065
10324,-9.7909,-2.1316
10336,-9.8329,-2.173
10348,-10.857,-4.7343
10359,-8.5209,-2.1953
10371,-11.484,-0.53677
10383,-9.5558,-2.9783
10395,-9.4896,-5.4616
10406,-12.079,-5.6553
10418,-12.949,-5.5676
10430,-9.872,-4.7228
10441,-7.7661,-4.3905
10453,-11.516,-6.1207
10465,-12.2,-6.8689
10477,-14.34,-6.5764
10488,-13.317,-5.8301
10500,-11.468,-0.6544
10512,-9.96,-1.764
10523,-9.7578,-8.0746
10535,-11.519,-3.7973
10547,-14.104,-1.8017
10559,-14.385,-3.4567
10570,-11.273,-3.3123
10582,-10.981,-1.3018
10594,-11.992,-4.3755
10605,-10.541,-3.0765
10617,-9.9426,-1.6735
10629,-5.2847,-3.8309
10641,-7.191,-4.8768
10652,-12.898,-2.2798
10664,-14.546,-4.4582
10676,-13.615,-2.0839
10688,-11.142,-3.0442
10699,-11.636,-4.521
10711,-11.662,-4.1829
10723,-10.528,-4.6828
10734,-9.9349,-1.4592
10746,-10.321,-1.9017
10758,-12.054,-5.4302
10770,-15.668,-5.6484
10781,-14.911,-5.8958
10793,-14.468,0.059125
10805,-18.045,-1.4511
10816,-13.145,-4.5667
10828,-13.517,-5.3272
10840,-15.869,-5.1407
10852,-12.265,-2.1265
10863,-10.891,-1.1959
10875,-11.193,-0.57153
10887,-12.801,-4.8653
10898,-10.056,-6.5897
10910,-9.3778,-3.5413
10922,-12.941,-3.7649
10934,-13.046,-3.7669
10945,-11.528,-3.7465
10957,-12.636,-3.8934
10969,-16.237,-6.8168
10980,-15.476,-4.7418
10992,-14.32,-8.0477
11004,-14.784,-7.6897
11016,-11.393,-5.1043
11027,-10.075,-4.5145
11039,-11.554,-4.2728
11051,-11.573,-5.4583
11063,-9.4152,-4.2367
11074,-11.143,-2.9647
11086,-10.763,-3.4837
11098,-13.617,-5.2257
11109,-11.592,-4.625
11121,-11.623,-4.2781
11133,-14.033,-2.559
11145,-15.652,-7.2045
11156,-17.238,-7.1487
11168,-15.057,-6.9926
11180,-13.506,-4.4884
11191,-10.328,-4.2748
11203,-11.334,-6.2915
11215,-13.2,-9.4331
11227,-12.469,-5.9616
11238,-11.689,-4.41
11250,-10.579,-3.8636
11262,-12.106,-6.039
11273,-13.116,-5.3914
11285,-15.199,-5.8017
11297,-12.568,-6.1494
11309,-10.645,-3.8554
11320,-10.196,-2.7053
11332,-11.021,-2.7501
11344,-13.596,-5.4051
11355,-12.151,-2.8639
11367,-12.889,-0.97936
11379,-12.345,-2.3244
11391,-11.029,-5.2195
11402,-13.575,-5.1411
11414,-13.877,-7.0061
11426,-12.067,-7.6053
11438,-12.079,-4.6344
11449,-13.738,-3.8156
11461,-12.11,-6.6989
11473,-13.27,-13.409
11484,-13.701,-6.5628
11496,-12.309,-4.735
11508,-10.163,-4.1179
11520,-9.9655,-5.1706
11531,-11.949,-7.6399
11543,-9.9357,-7.884
11555,-10.153,-3.1508
11566,-14.422,-3.8997
11578,-12.89,-4.6545
11590,-11.635,-5.532
11602,-11.113,-6.7986
11613,-13.047,-6.4981
11625,-11.427,-6.1747
11637,-8.8982,-8.9709
11648,-12.43,-11.36
11660,-17.01,-9.2078
11672,-13.838,-5.6469
11684,-11.729,-6.6756
11695,-12.321,-7.5606
11707,-15.502,-4.8601
11719,-16.91,-4.3268
11730,-12.887,-4.0168
11742,-9.3478,-3.2984
11754,-11.774,-3.9436
11766,-12.469,-4.461
11777,-8.4407,-4.1624
11789,-7.6951,-5.3271
11801,-12.273,-5.9427
11813,-14.45,-6.4865
11824,-17.977,-4.7714
11836,-14.695,-1.7288
11848,-11.978,-3.9799
11859,-14.926,-8.2119
11871,-14.045,-5.6697
11883,-12.954,-5.5167
11895,-10.584,-6.4343
11906,-10.277,-7.335
11918,-11.835,-5.8458
11930,-10.096,-5.5949
11941,-11.475,-5.6927
11953,-12.261,-3.9699
11965,-15.055,-6.4352
11977,-14.212,-6.8069
11988,-10.567,-7.0498
12000,-12.452,-3.2841
12012,-13.824,-3.8318
12023,-13.547,-4.1141
12035,-11.948,-4.1513
12047,-15.14,-7.0683
12059,-13.667,-4.0954
12070,-12.991,-4.0034
12082,-14.864,-5.8662
12094,-9.3076,-7.8199
12105,-11.723,-8.0864
12117,-15.041,-5.3473
12129,-14.424,-3.2338
12141,-11.469,-4.218
12152,-11.662,-7.3885
12164,-14.997,-6.7061
12176,-15.837,-6.2439
12188,-12.498,-10.223
12199,-11.26,-6.3905
12211,-12.762,-4.0294
12223,-15.584,-3.1627
12234,-16.174,-5.943
12246,-12.463,-5.9033
12258,-12.843,-8.7018
12270,-14.424,-7.2867
12281,-13.328,-8.3569
12293,-11.587,-6.2993
12305,-12.025,-6.3534
12316,-13.925,-6.1234
12328,-13.817,-6.789
12340,-13.258,-6.126
12352,-13.902,-7.161
12363,-13.291,-8.581
12375,-9.8223,-5.2737
12387,-9.0643,-3.1339
12398,-9.2918,-3.8845
12410,-10.347,-6.4643
12422,-12.136,-4.3065
12434,-12.251,-3.9401
12445,-11.177,-5.872
12457,-14.516,-7.5925
12469,-12.694,-3.8404
12480,-11.439,-4.8241
12492,-11.663,-9.3776
12504,-11.52,-4.282
12516,-12.477,-3.8026
12527,-10.936,-7.7815
12539,-10.074,-5.5636
12551,-12.386,-4.4067
12563,-12.886,-4.2259
12574,-13.113,-4.3935
12586,-12.435,-4.8793
12598,-11.86,-6.8488
12609,-14.188,-5.1523
12621,-12.431,-4.3616
12633,-10.554,-9.0796
12645,-12.171,-4.8376
12656,-11.477,-4.4927
12668,-11.366,-7.9055
12680,-11.301,-6.7109
12691,-13.101,-6.6649
12703,-13.678,-6.5912
12715,-13.206,-1.9899
12727,-12.605,-2.3312
12738,-11.177,-7.486
12750,-12.178,-7.8826
12762,-13.125,-7.5634
12773,-10.233,-10.07
12785,-8.3896,-8.7507
12797,-9.1467,-5.9892
12809,-9.5691,-4.7719
12820,-13.039,-5.4333
12832,-13.043,-5.8887
12844,-12.288,-4.6561
12855,-10.597,-5.1099
12867,-12.932,-3.9443
12879,-14.044,-4.204
12891,-13.136,-6.6871
12902,-13.756,-7.4716
12914,-12.432,-5.6637
12926,-13.676,-5.0265
12938,-13.589,-7.2941
12949,-14.095,-9.0623
12961,-14.328,-9.2856
12973,-13.315,-6.1874
12984,-13.517,-7.958
12996,-16.238,-6.9472
13008,-14.563,-6.2454
13020,-15.016,-7.8107
13031,-10.708,-13.564
13043,-9.3045,-10.12
13055,-13.372,-8.4482
13066,-12.706,-9.7636
13078,-13.452,-7.5697
13090,-13.632,-4.5029
13102,-12.859,-5.1226
13113,-14.368,-8.6259
13125,-14.639,-8.7918
13137,-15.536,-7.6619
13148,-12.801,-5.7354
13160,-14.772,-3.4041
13172,-10.149,-3.3043
13184,-12.866,-7.6238
13195,-17.313,-7.617
13207,-11.809,-6.0669
13219,-11.068,-6.5703
13230,-11.863,-6.5152
13242,-11.996,-5.6724
13254,-12.456,-7.6033
13266,-12.62,-9.4746
13277,-13.299,-5.5527
13289,-12.098,-10.199
13301,-13.779,-6.7123
13313,-13.516,-6.5863
13324,-13.832,-6.9511
13336,-11.103,-3.9048
13348,-13.726,-3.4828
13359,-15.9,-7.0039
13371,-16.007,-9.6388
13383,-14.662,-9.8856
13395,-13.839,-7.068
13406,-12.527,-8.7026
13418,-12.526,-8.3017
13430,-14.23,-6.3634
13441,-13.417,-8.6981
13453,-15.574,-9.884
13465,-14.898,-10.105
13477,-14.192,-8.4113
13488,-14.848,-5.6342
13500,-13.265,-4.0126
13512,-9.1405,-4.8808
13523,-8.7334,-9.3505
13535,-11.741,-9.9575
13547,-12.562,-8.4821
13559,-12.999,-8.638
13570,-14.832,-9.2508
13582,-15.332,-4.7672
13594,-11.942,-2.6579
13605,-12.703,-4.2126
13617,-15.098,-6.595
13629,-14.56,-5.8698
13641,-13.607,-7.9486
13652,-12.487,-11.088
13664,-15.858,-6.9217
13676,-14.204,-5.4616
13688,-18.154,-5.0902
13699,-16.71,-9.3886
13711,-15.644,-10.868
13723,-15.586,-8.3315
13734,-13.147,-6.9422
13746,-11.626,-7.9486
13758,-10.819,-10.043
13770,-11.635,-10.704
13781,-13.393,-10.215
13793,-11.815,-7.69
13805,-16.548,-4.7541
13816,-12.359,-3.6746
13828,-14.726,-6.1683
13840,-16.143,-6.8669
13852,-14.289,-5.0198
13863,-14.809,-7.8973
13875,-15.908,-8.6338
13887,-14.109,-7.6675
13898,-14.605,-7.1948
13910,-14.932,-8.8234
13922,-15.569,-8.4278
13934,-14.092,-9.5979
13945,-13.368,-8.1073
13957,-12.591,-7.6007
13969,-13.68,-6.7193
13980,-16.012,-8.5313
13992,-15.572,-10.085
14004,-16.703,-6.8035
14016,-14.315,-5.7446
14027,-13.505,-6.2959
14039,-14.485,-8.4673
14051,-14.06,-9.1269
14063,-17.732,-6.7298
14074,-13.71,-4.9915
14086,-16.844,-5.2176
14098,-16.412,-8.3228
14109,-14.937,-8.6001
14121,-12.192,-7.0101
14133,-11.975,-7.172
14145,-13.631,-8.5692
14156,-15.145,-6.3262
14168,-17.588,-4.873
14180,-16.175,-6.0483
14191,-15.633,-4.5868
14203,-13.076,-4.5806
14215,-14.266,-7.4733
14227,-19.002,-8.0582
14238,-23.723,-8.2247
14250,-15.116,-7.7763
14262,-12.252,-5.974
14273,-14.759,-10.212
14285,-14.559,-6.4748
14297,-14.893,-3.6285
14309,-16.455,-2.8638
14320,-14.537,-5.4979
14332,-15.319,-7.3488
14344,-13.434,-9.7412
14355,-13.927,-8.3121
14367,-14.646,-4.5531
14379,-14.469,-4.8755
14391,-16.153,-5.3173
14402,-13.631,-3.5572
14414,-15.475,-4.2482
14426,-15.661,-6.8714
14438,-15.075,-8.1857
14449,-13.556,-8.7064
14461,-13.945,-8.9131
14473,-13.526,-7.4867
14484,-16.1,-7.6728
14496,-18.36,-8.7717
14508,-16.289,-8.3622
14520,-15.035,-4.6375
14531,-14.978,-5.8339
14543,-15.145,-8.2793
14555,-15.754,-7.2905
14566,-15.733,-7.1059
14578,-16.457,-9.3511
14590,-17.859,-10.806
14602,-18.612,-6.987
14613,-17.024,-7.0796
14625,-16.055,-7.1407
14637,-16.068,-7.1488
14648,-16.23,-8.264
14660,-18.905,-6.8134
14672,-17.845,-7.0806
14684,-15.096,-9.1256
14695,-14.147,-12.081
14707,-15.885,-6.5863
14719,-15.34,-8.3366
14730,-15.254,-11.852
14742,-15.761,-9.4033
14754,-16.076,-7.8697
14766,-15.266,-7.6317
14777,-14.926,-6.5291
14789,-18.549,-8.2313
14801,-17.506,-10.054
14813,-18.005,-9.555
14824,-19.193,-7.9021
14836,-19.319,-9.5682
14848,-17.658,-11.921
14859,-16.246,-7.7003
14871,-18.665,-6.9814
14883,-18.541,-8.3494
14895,-16.629,-11.077
14906,-16.183,-8.1163
14918,-16.28,-3.6691
14930,-14.155,-6.5294
14941,-13.914,-8.8007
14953,-15.408,-7.6707
14965,-16.387,-7.0635
14977,-17.106,-8.1514
14988,-17.867,-12.177
15000,-16.665,-8.5851
15012,-17.694,-9.2279
15023,-16.866,-10.976
15035,-14.074,-9.0118
15047,-12.621,-7.4053
15059,-14.19,-6.8788
15070,-13.744,-8.3073
15082,-13.986,-8.452
15094,-16.853,-9.8026
15105,-15.202,-11.493
15117,-18.197,-7.4383
15129,-16.912,-7.3282
15141,-14.96,-7.5775
15152,-14.633,-7.407
15164,-15.291,-11.429
15176,-17.575,-10.564
15188,-16.85,-8.7397
15199,-15.399,-7.2419
15211,-14.323,-3.7365
15223,-15.225,-3.0804
15234,-18.678,-4.7548
15246,-19.82,-7.5215
15258,-18.728,-9.5781
15270,-19.641,-10.339
15281,-18.716,-6.8004
15293,-15.419,-5.0966
15305,-17.93,-6.7757
15316,-19.344,-5.778
15328,-21.608,-6.8576
15340,-17.928,-10.585
15352,-17.864,-8.6223
15363,-16.801,-5.1244
15375,-16.857,-5.4226
15387,-19.139,-10.165
15398,-16.046,-10.486
15410,-15.341,-10.772
15422,-18.072,-9.0587
15434,-14.29,-5.4534
15445,-13.874,-6.5564
15457,-14.501,-7.2232
15469,-16.667,-7.7171
15480,-19.807,-9.1944
15492,-19.66,-8.6274
15504,-16.755,-6.5002
15516,-14.821,-5.9508
15527,-17.254,-9.4775
15539,-14.865,-10.978
15551,-15.559,-10.894
15563,-20.494,-8.7121
15574,-20.931,-6.4753
15586,-20.685,-8.3689
15598,-20.053,-10.311
15609,-15.772,-8.4081
15621,-15.025,-9.2069
15633,-15.691,-7.905
15645,-20.689,-8.5254
15656,-18.258,-7.5003
15668,-17.2,-7.7885
15680,-16.69,-6.8055
15691,-19.598,-7.8916
15703,-18.547,-8.4725
15715,-17.478,-7.493
15727,-20.761,-4.1413
15738,-19.131,-6.9757
15750,-20.799,-10.509
15762,-23.184,-11.225
15773,-18.235,-11.473
15785,-17.152,-9.6277
15797,-18.932,-9.7671
15809,-18.387,-7.5549
15820,-19.115,-6.8166
15832,-16.959,-10.11
15844,-17.462,-10.241
15855,-16.135,-9.3097
15867,-15.967,-7.7487
15879,-18.763,-5.6862
15891,-22.335,-8.2308
15902,-17.091,-8.4986
15914,-20.557,-8.9798
15926,-15.493,-6.6964
15938,-18.153,-8.7164
15949,-20.575,-12.381
15961,-21.744,-10.099
15973,-19.408,-8.5679
15984,-18.423,-7.4509
15996,-18.359,-6.3128
16008,-19.481,-8.6244
16020,-21.792,-8.8361
16031,-18.943,-10.861
16043,-16.556,-9.4028
16055,-19.481,-8.4906
16066,-20.753,-9.2639
16078,-20.097,-9.3036
16090,-20.81,-10.102
16102,-19.893,-8.2607
16113,-19.586,-7.4302
16125,-22.114,-9.4187
16137,-20.385,-9.0086
16148,-21.948,-8.92
16160,-19.088,-10.105
16172,-18.414,-8.6847
16184,-21.243,-8.4007
16195,-20.655,-9.1247
16207,-21.641,-10.589
16219,-16.972,-10.434
16230,-19.921,-12.343
16242,-22.922,-10.875
16254,-21.222,-9.9246
16266,-20.229,-11.557
16277,-19.416,-8.3291
16289,-19.555,-8.2319
16301,-18.955,-9.8179
16313,-20.015,-7.777
16324,-20.038,-7.8533
16336,-21.999,-9.81
16348,-21.95,-10.057
16359,-21.771,-9.8487
16371,-22.82,-10.804
16383,-21.074,-10.986
16395,-19.377,-12.28
16406,-19.106,-11.989
16418,-19.009,-8.2764
16430,-20.973,-8.8379
16441,-19.001,-9.5996
16453,-19.01,-7.8589
16465,-19.102,-8.376
16477,-17.962,-11.255
16488,-17.251,-8.8873
16500,-18.8,-9.9638
16512,-20.768,-14.007
16523,-18.59,-10.85
16535,-21.513,-11.798
16547,-21.528,-11.597
16559,-20.049,-11.237
16570,-21.529,-11.672
16582,-21.85,-9.4646
16594,-17.09,-10.014
16605,-16.508,-12.969
16617,-17.373,-12.175
16629,-19.883,-8.9647
16641,-19.759,-9.2813
16652,-20.931,-11.608
16664,-21.71,-8.8221
16676,-20.649,-8.0095
16688,-19.275,-10.758
16699,-19.653,-8.9473
16711,-20.687,-11.812
16723,-20.756,-12.914
16734,-16.809,-10.69
16746,-16.887,-10.288
16758,-18.533,-9.9432
16770,-19.98,-11.183
16781,-20.109,-11.081
16793,-21.554,-11.365
16805,-20.705,-11.92
16816,-18.535,-9.0556
16828,-17.818,-10.435
16840,-20.904,-7.5151
16852,-20.66,-8.5288
16863,-18.079,-10.344
16875,-19.318,-10.173
16887,-18.195,-9.1248
16898,-22.496,-11.725
16910,-19.459,-7.7089
16922,-17.74,-9.4861
16934,-17.691,-13.557
16945,-21.501,-10.972
16957,-19.915,-9.7102
16969,-19.419,-10.375
16980,-22.768,-10.821
16992,-23.558,-9.4144
17004,-22.488,-7.9052
17016,-23.119,-10.819
17027,-21.448,-11.86
17039,-20.682,-9.4946
17051,-21.005,-8.4528
17063,-22.383,-10.258
17074,-21.234,-13.357
17086,-22.682,-12.357
17098,-21.069,-14.554
17109,-18.036,-15.568
17121,-20.719,-13.229
17133,-22.162,-12.539
17145,-20.51,-10.79
17156,-18.393,-9.3674
17168,-20.669,-10.136
17180,-19.771,-7.6097
17191,-21.757,-7.3102
17203,-20.136,-7.6776
17215,-21.053,-10.291
17227,-18.734,-11.911
17238,-19.807,-9.4719
17250,-23.747,-10.307
17262,-22.364,-8.4873
17273,-21.924,-11.26
17285,-21.644,-13.721
17297,-22.074,-11.278
17309,-24.311,-12.148
17320,-26.148,-9.4704
17332,-21.662,-8.5121
17344,-20.219,-11.749
17355,-18.289,-12.276
17367,-20.657,-9.806
17379,-21.534,-12.048
17391,-20.422,-12.471
17402,-22.116,-11.814
17414,-20.983,-10.365
17426,-20.098,-10.028
17438,-19.824,-10.488
17449,-22.785,-12.217
17461,-21.96,-12.508
17473,-21.127,-9.966
17484,-21.051,-10.187
17496,-21.637,-9.9591
17508,-19.811,-10.305
17520,-22.266,-10.144
17531,-25.341,-12.829
17543,-24.459,-10.491
17555,-22.786,-11.435
17566,-22.843,-9.9028
17578,-20.231,-9.1743
17590,-20.015,-9.303
17602,-19.763,-9.1011
17613,-22.445,-9.6016
17625,-19.355,-9.439
17637,-22.362,-8.1226
17648,-25.163,-11.773
17660,-22.321,-9.9822
17672,-19.875,-8.8959
17684,-17.996,-10.325
17695,-19.7,-9.3068
17707,-23.338,-8.9066
17719,-20.714,-12.202
17730,-21.131,-14.276
17742,-22.186,-13.312
17754,-22.505,-11.361
17766,-23.911,-12.216
17777,-24.591,-12.386
17789,-20.629,-11.897
17801,-22.792,-12.34
17813,-20.994,-12.009
17824,-19.941,-10.329
17836,-21.34,-8.5556
17848,-22.337,-10.72
17859,-23.969,-14.044
17871,-22.489,-10.484
17883,-20.166,-10.176
17895,-21.651,-9.8477
17906,-22.511,-12.233
17918,-22.139,-14.782
17930,-20.903,-14.137
17941,-21.211,-12.657
17953,-20.199,-10.937
17965,-22.726,-13.588
17977,-25.894,-9.7725
17988,-24.203,-11.073
18000,-20.899,-13.368
18012,-21.427,-13.4
18023,-22.4,-13.12
18035,-22.761,-13.153
18047,-24.178,-13.027
18059,-24.185,-12.091
18070,-27.027,-9.7369
18082,-19.745,-9.2558
18094,-17.94,-11.057
18105,-18.023,-13.933
18117,-21.298,-13.595
18129,-22.688,-12.923
18141,-21.048,-10.968
18152,-19.642,-11.14
18164,-20.074,-10.464
18176,-20.433,-13.91
18188,-22.403,-14.28
18199,-24.679,-13.163
18211,-23.559,-11.226
18223,-26.581,-11.894
18234,-24.461,-12.302
18246,-23.028,-10.257
18258,-23.142,-10.691
18270,-21.431,-11.323
18281,-22.573,-9.6082
18293,-22.77,-12.179
18305,-19.434,-11.712
18316,-20.54,-10.916
18328,-21.384,-14.713
18340,-25.618,-14.443
18352,-20.292,-15.134
18363,-22.109,-13.39
18375,-23.511,-14.257
18387,-24.398,-15.806
18398,-23.036,-12.543
18410,-21.286,-13.608
18422,-22.413,-14.743
18434,-23.184,-11.38
18445,-24.299,-10.278
18457,-23.252,-12.261
18469,-24.002,-14.934
18480,-23.332,-17.212
18492,-22.341,-14.122
18504,-23.741,-9.3298
18516,-25.313,-8.6887
18527,-20.425,-11.642
18539,-19.5,-12.379
18551,-20.254,-13.119
18563,-22.006,-11.536
18574,-23.772,-9.3003
18586,-20.595,-11.907
18598,-21.652,-14.476
18609,-25.044,-13.879
18621,-21.743,-12.605
18633,-21.781,-10.151
18645,-22.777,-10.538
18656,-23.587,-11.045
18668,-25.256,-10.538
18680,-23.279,-10.627
18691,-23.367,-11.551
18703,-23.826,-10.868
18715,-22.042,-9.1767
18727,-19.218,-10.593
18738,-18.136,-12.582
18750,-22.971,-15.183
18762,-22.148,-16.66
18773,-22.195,-13.765
18785,-24.709,-14.408
18797,-26.063,-13.199
18809,-26.035,-13.501
18820,-24.287,-9.9125
18832,-23.791,-12.423
18844,-24.064,-12.909
18855,-24.521,-10.426
18867,-23.697,-10.172
18879,-20.73,-11.572
18891,-19.926,-13.546
18902,-23,-15.279
18914,-26.164,-13.713
18926,-24.969,-14.804
18938,-25.33,-10.441
18949,-24.332,-10.76
18961,-21.879,-12.275
18973,-23.261,-14.606
18984,-22.984,-13.489
18996,-25.144,-13.288
19008,-24.151,-14.646
19020,-25.132,-11.74
19031,-24.781,-10.098
19043,-25.958,-10.251
19055,-24.199,-13.952
19066,-23.986,-15.975
19078,-23.316,-14.461
19090,-22.607,-11.36
19102,-20.399,-8.6003
19113,-20.031,-10.519
19125,-21.611,-12.426
19137,-22.52,-13.338
19148,-23.394,-16.051
19160,-24.125,-12.189
19172,-25.621,-12.301
19184,-24.17,-14.702
19195,-25.166,-15.572
19207,-24.438,-12.323
19219,-23.308,-11.632
19230,-21.649,-8.5877
19242,-22.112,-9.3109
19254,-25.859,-12.008
19266,-24.374,-14.469
19277,-22.559,-13.011
19289,-22.72,-11.515
19301,-23.247,-12.06
19313,-22.12,-14.503
19324,-23.122,-10.123
19336,-23.737,-9.1929
19348,-21.876,-11.82
19359,-23.285,-14.69
19371,-24.181,-13.199
19383,-22.919,-13.206
19395,-20.76,-13.825
19406,-22.856,-11.578
19418,-23.642,-12.99
19430,-22.019,-17.574
19441,-19.845,-17.458
19453,-22.363,-10.895
19465,-24.784,-12.46
19477,-23.227,-13.346
19488,-20.631,-14.479
19500,-20.405,-13.562
19512,-22.171,-13.492
19523,-26.559,-9.031
19535,-26.26,-8.3837
19547,-26.741,-11.577
19559,-25.036,-13.031
19570,-22.539,-13.384
19582,-22.139,-13.767
19594,-25.398,-15.877
19605,-22.554,-15.376
19617,-23.649,-16.084
19629,-20.89,-13.197
19641,-19.246,-10.675
19652,-20.835,-12.131
19664,-24.223,-14.107
19676,-25.34,-13.205
19688,-24.851,-14.783
19699,-24.499,-17.491
19711,-23.898,-14.112
19723,-24.506,-12.881
19734,-23.994,-14.549
19746,-26.483,-11.638
19758,-23.601,-9.4122
19770,-22.284,-11.48
19781,-23.862,-13.904
19793,-23.779,-11.578
19805,-21.734,-13.654
19816,-24.387,-14.546
19828,-27.547,-14.38
19840,-24.165,-16.562
19852,-22.683,-17.8
19863,-22.495,-16.675
19875,-29.904,-20.006
19887,-26.532,-15.183
19898,-26.503,-11.809
19910,-25.533,-10.949
19922,-21.685,-11.608
19934,-21.979,-12.019
19945,-23.109,-13.542
19957,-24.391,-13.467
19969,-23.792,-14.125
19980,-23.045,-14.212
19992,-21.912,-13.032
20004,-20.45,-11.19
20016,-21.756,-12.54
20027,-23.373,-12.775
20039,-27.295,-15.053
20051,-25.52,-16.687
20063,-23.203,-14.655
20074,-24.988,-14.258
20086,-22.814,-12.518
20098,-24.178,-13.48
20109,-22.649,-17.397
20121,-22.288,-15.194
20133,-22.665,-15.341
20145,-24.984,-15.796
20156,-24.49,-13.492
20168,-23.51,-14.003
20180,-26.8,-14.232
20191,-25.243,-13.64
20203,-22.865,-14.294
20215,-24.724,-15.106
20227,-24.414,-15.508
20238,-24.502,-15.99
20250,-23.886,-16.088
20262,-26.812,-14.018
20273,-25.914,-13.863
20285,-24.328,-15.735
20297,-24.445,-17.77
20309,-26.364,-13.952
20320,-21.398,-12.531
20332,-23.424,-12.028
20344,-27.856,-13.511
20355,-21.057,-15.735
20367,-21.524,-12.568
20379,-23.721,-11.101
20391,-22.685,-11.737
20402,-20.096,-15.658
20414,-21.951,-12.563
20426,-25.043,-11.276
20438,-23.039,-13.372
20449,-23.906,-11.784
20461,-23.92,-13.182
20473,-24.868,-14.094
20484,-22.441,-14.316
20496,-25.528,-15.482
20508,-24.205,-16.706
20520,-23.537,-14.655
20531,-25.375,-13.672
20543,-27.228,-14.038
20555,-24.839,-13.431
20566,-25.279,-11.17
20578,-25.211,-11.354
20590,-28.242,-13.955
20602,-24.715,-15.912
20613,-25.381,-18.103
20625,-25.805,-16.907
20637,-25.442,-15.508
20648,-23.657,-15.169
20660,-24.097,-12.373
20672,-25.077,-12.502
20684,-24.039,-14.295
20695,-23.186,-16.873
20707,-24.517,-19.556
20719,-23.251,-16.985
20730,-24.223,-15.497
20742,-24.066,-13.708
20754,-26.342,-12.655
20766,-27.625,-13.059
20777,-27.849,-11.13
20789,-25.762,-12.774
20801,-22.285,-16.048
20813,-25.121,-14.507
20824,-25.39,-16.51
20836,-23.994,-12.882
20848,-24.153,-12.113
20859,-27.826,-12.386
20871,-28.194,-13.052
20883,-28.35,-15.771
20895,-26.56,-14.202
20906,-23.481,-12.342
20918,-24.506,-12.838
20930,-23.763,-14.264
20941,-25.251,-13.371
20953,-23.166,-12.39
20965,-20.821,-12.789
20977,-20.431,-13.854
20988,-22.414,-14.026
21000,-24.853,-13.961
21012,-24.525,-14.897
21023,-22.165,-17.495
21035,-22.317,-17.862
21047,-23.937,-20.627
21059,-25.623,-17.562
21070,-26.032,-18.036
21082,-26.188,-12.957
21094,-26.529,-14.288
21105,-23.821,-12.961
21117,-25.734,-11.093
21129,-25.426,-13.651
21141,-23.194,-17.158
21152,-25.177,-12.472
21164,-24.593,-13.907
21176,-24.832,-18.078
21188,-23.295,-17.586
21199,-23.741,-14.727
21211,-26.352,-14.507
21223,-30.208,-19.549
21234,-28.034,-16.525
21246,-27.811,-13.707
21258,-29.209,-13.282
21270,-27.955,-14.576
21281,-23.187,-15.216
21293,-23.018,-15.926
21305,-25.561,-15.609
21316,-24.718,-17.021
21328,-25.834,-15.04
21340,-27.628,-13.111
21352,-27.312,-14.322
21363,-26.753,-19.594
21375,-26.465,-15.097
21387,-29.705,-13.651
21398,-29.513,-15.195
21410,-23.9,-16.043
21422,-24.886,-13.714
21434,-27.012,-13.86
21445,-27.629,-15.19
21457,-27.484,-15.013
21469,-26.494,-14.464
21480,-25.507,-13.441
21492,-27.693,-15.735
21504,-28.275,-18.621
21516,-25.571,-15.874
21527,-20.989,-13.212
21539,-23.618,-15.717
21551,-24.524,-16.96
21563,-25.461,-16.417
21574,-24.955,-15.711
21586,-23.046,-14.902
21598,-26.528,-16.303
21609,-29.113,-14.511
21621,-25.318,-14.414
21633,-23.35,-13.541
21645,-22.816,-10.652
21656,-22.606,-11.853
21668,-24.01,-13.321
21680,-27.258,-13.005
21691,-27.477,-15.013
21703,-25.253,-16.009
21715,-23.09,-15.426
21727,-25.721,-14.965
21738,-26.044,-16.379
21750,-26.487,-14.478
21762,-27.17,-15.478
21773,-28.553,-16.619
21785,-26.978,-14.132
21797,-27.088,-12.784
21809,-27.125,-11.463
21820,-24.23,-12.961
21832,-24.049,-14.783
21844,-25.842,-13.71
21855,-27.56,-11.923
21867,-28.701,-11.723
21879,-27.554,-11.897
21891,-26.366,-14.161
21902,-26.677,-17.952
21914,-28.28,-16.047
21926,-29.094,-14.237
21938,-27.453,-16.841
21949,-25.304,-15.573
21961,-24.293,-15.357
21973,-29.106,-14.223
21984,-28.992,-13.932
21996,-26.143,-15.847
22008,-26.232,-19.452
22020,-27.631,-17.613
22031,-27.169,-17.337
22043,-25.504,-13.919
22055,-26.178,-11.574
22066,-26.725,-11.875
22078,-28.143,-13.833
22090,-25.216,-14.458
22102,-23.221,-17.676
22113,-25.563,-15.614
22125,-26.304,-15.187
22137,-24.348,-15.998
22148,-24.312,-13.807
22160,-26.022,-14.717
22172,-27.517,-14.736
22184,-28.516,-14.468
22195,-27.768,-13.907
22207,-27.652,-13.368
22219,-27.975,-15.571
22230,-25.376,-12.104
22242,-26.601,-11.583
22254,-28.229,-13.964
22266,-28.308,-15.597
22277,-27.931,-14.894
22289,-26.665,-16.374
22301,-25.19,-18.984
22313,-24.904,-15.635
22324,-27.102,-18.819
22336,-28.24,-17.769
22348,-30.937,-15.236
22359,-26.555,-18.207
22371,-25.504,-19.067
22383,-27.974,-13.381
22395,-24.666,-13.947
22406,-24.038,-14.11
22418,-23.764,-12.762
22430,-24.454,-12.973
22441,-27.299,-13.781
22453,-26.924,-16.477
22465,-25.059,-18.34
22477,-28.647,-19.687
22488,-30.399,-18.6
22500,-29.983,-16.934
22512,-31.735,-14.864
22523,-31.05,-16.659
22535,-26.146,-16.884
22547,-23.848,-16.309
22559,-23.654,-16.509
22570,-26.936,-17.02
22582,-27.478,-17.102
22594,-30.635,-17.053
22605,-29.116,-16.547
22617,-28.024,-14.98
22629,-28.951,-14.735
22641,-30.807,-15.461
22652,-30.05,-15.328
22664,-30.658,-16.63
22676,-29.461,-13.702
22688,-30.327,-13.268
22699,-28.439,-16.485
22711,-24.727,-18.214
22723,-25.143,-20.094
22734,-26.813,-18.007
22746,-26.424,-19.045
22758,-28.822,-16.903
22770,-28.546,-15.855
22781,-26.819,-15.195
22793,-24.719,-15.917
22805,-27.46,-17.828
22816,-26.381,-16.401
22828,-26.115,-15.697
22840,-27.299,-15.779
22852,-25.919,-17.125
22863,-25.251,-17.02
22875,-27.347,-13.753
22887,-25.183,-12.502
22898,-26.17,-13.381
22910,-27.711,-14.357
22922,-27.446,-15.88
22934,-26.511,-15.683
22945,-25.724,-14.318
22957,-25.253,-15.518
22969,-27.796,-14.326
22980,-30.706,-13.628
22992,-27.952,-17.379
23004,-25.292,-17.462
23016,-25.255,-12.534
23027,-26.375,-13.091
23039,-28.466,-15.776
23051,-27.842,-17.372
23063,-27.775,-14.102
23074,-28.522,-18.135
23086,-26.223,-16.06
23098,-26.69,-15.728
23109,-29.704,-13.286
23121,-31.56,-14.769
23133,-28.239,-16.94
23145,-25.164,-14.939
23156,-23.412,-15.415
23168,-24.181,-16.049
23180,-25.377,-13.496
23191,-25.689,-12.747
23203,-27.266,-17.75
23215,-27.465,-16.554
23227,-27.153,-17.06
23238,-26.993,-18.656
23250,-25.983,-18.215
23262,-26.259,-18.153
23273,-24.775,-16.905
23285,-23.413,-16.834
23297,-27.816,-16.026
23309,-27.976,-14.518
23320,-26.732,-15.652
23332,-24.947,-15.809
23344,-24.647,-18.979
23355,-25.743,-17.254
23367,-25.467,-15.095
23379,-25.694,-14.302
23391,-27.268,-17.27
23402,-30.054,-16.011
23414,-26.688,-16.376
23426,-24.979,-17.861
23438,-24.648,-16.381
23449,-25.795,-15.902
23461,-26.39,-20.065
23473,-26.624,-20.2
23484,-25.437,-16.703
23496,-22.722,-13.228
23508,-27.943,-12.924
23520,-27.749,-14.843
23531,-27.846,-16.338
23543,-27.017,-16.147
23555,-29.557,-16.871
23566,-25.67,-18.506
23578,-24.012,-14.652
23590,-23.853,-13.559
23602,-25.3,-17.861
23613,-24.765,-19.358
23625,-27.303,-19.21
23637,-29.804,-20.55
23648,-28.117,-15.645
23660,-23.691,-16.531
23672,-23.764,-19.682
23684,-26.738,-20.081
23695,-29.09,-16.901
23707,-31.584,-14.106
23719,-31.332,-13.879
23730,-29.379,-13.669
23742,-26.495,-12.438
23754,-24.265,-13.534
23766,-22.796,-17.888
23777,-26.199,-16.624
23789,-27.963,-16.231
23801,-27.833,-16.912
23813,-26.925,-15.23
23824,-23.706,-16.769
23836,-23.868,-15.337
23848,-28.05,-15.768
23859,-27.625,-14.589
23871,-26.638,-16.461
23883,-29.833,-14.799
23895,-27.202,-16.212
23906,-28.812,-18.078
23918,-27.688,-18.663
23930,-26.792,-17.328
23941,-26.46,-15.866
23953,-28.562,-16.915
23965,-26.051,-16.449
23977,-21.211,-15.846
23988,-22.707,-15.918
