FFT,Power Spectrum
Frequency[Hz],Level-L[dB],Level-R[dB]
11.719,-17.497,-21.132
23.438,2.638,-0.94687
35.156,2.8859,1.1066
46.875,14.395,11.1
58.594,21.497,17.991
70.313,16.625,13.406
82.031,13.751,11.847
93.75,17.995,15.161
105.47,18.035,15.509
117.19,14.958,8.9831
128.91,15.428,14.332
140.63,17.718,16.579
152.34,12.577,13.057
164.06,5.8326,7.2697
175.78,4.1827,6.4354
187.5,14.001,11.008
199.22,16.427,12.963
210.94,6.7599,6.1464
222.66,10.596,7.3308
234.38,13.354,7.5011
246.09,9.2683,6.0123
257.81,9.562,7.1823
269.53,10.743,7.3498
281.25,8.0707,5.5188
292.97,9.0486,8.8537
304.69,4.5408,6.5894
316.41,5.3741,5.1399
328.13,6.273,5.038
339.84,5.6188,5.1364
351.56,4.565,6.2096
363.28,6.1385,5.6487
375,8.5754,4.7987
386.72,10.507,7.0895
398.44,9.1812,9.0006
410.16,6.974,5.4568
421.88,6.6922,5.8727
433.59,9.0895,8.0642
445.31,10.796,9.6664
457.03,9.9389,7.0838
468.75,9.5775,8.0671
480.47,6.0639,6.0833
492.19,3.5797,6.3292
503.91,4.7931,7.6663
515.63,7.0023,6.12
527.34,6.8666,5.608
539.06,4.4608,6.3436
550.78,2.9471,5.9017
562.5,5.9828,6.2436
574.22,6.3012,5.1651
585.94,6.5113,6.2474
597.66,7.1156,7.7898
609.38,8.275,7.2156
621.09,7.4544,5.1257
632.81,5.394,5.908
644.53,5.392,3.2416
656.25,5.5121,3.9828
667.97,6.1577,6.4291
679.69,9.4932,9.5184
691.41,8.4023,7.9194
703.13,9.5387,5.6083
714.84,8.9688,5.1577
726.56,6.9539,5.246
738.28,6.5363,5.946
750,5.5147,4.0317
761.72,3.9595,6.2914
773.44,5.1031,5.8699
785.16,6.9139,4.6735
796.88,7.7049,5.3764
808.59,7.2947,6.73
820.31,6.7736,5.1493
832.03,7.1356,3.8498
843.75,5.4423,5.7886
855.47,6.6454,7.1937
867.19,6.6939,4.9877
878.91,6.0667,6.421
890.63,7.4116,7.0656
902.34,10.475,8.2263
914.06,11.959,10.284
925.78,10.184,8.1622
937.5,6.0174,8.6305
949.22,8.7017,7.0392
960.94,7.7311,4.7669
972.66,6.7435,2.0873
984.38,4.8789,0.24562
996.09,5.8395,5.6034
1007.8,6.9377,4.9632
1019.5,4.32,4.5622
1031.3,4.2177,6.3894
1043,6.0196,3.3517
1054.7,6.1763,5.038
1066.4,7.0367,5.6102
1078.1,6.5783,6.5205
1089.8,9.3748,6.2167
1101.6,11.226,4.0268
1113.3,9.8839,6.6105
1125,8.4969,7.5389
1136.7,6.6016,3.9247
1148.4,5.1914,5.0641
1160.2,5.6452,5.409
1171.9,5.5536,7.658
1183.6,5.5848,5.9356
1195.3,5.868,6.2049
1207,6.898,7.4393
1218.8,7.588,7.087
1230.5,7.2092,6.9112
1242.2,7.0729,4.7109
1253.9,5.7905,3.6816
1265.6,6.5386,3.177
1277.3,5.0166,1.4574
1289.1,3.6498,2.7392
1300.8,4.571,2.9703
1312.5,5.3538,2.8623
1324.2,4.7273,5.1211
1335.9,6.0927,4.599
1347.7,5.9793,6.5878
1359.4,4.9309,6.0278
1371.1,4.3768,4.0696
1382.8,3.8126,3.8777
1394.5,5.5475,0.99559
1406.3,2.0438,5.2076
1418,3.5829,5.9077
1429.7,6.3105,7.3253
1441.4,5.6245,3.4929
1453.1,5.6142,4.8662
1464.8,4.5081,4.1146
1476.6,2.9751,5.396
1488.3,2.8769,4.7934
1500,4.7101,3.9315
1511.7,3.4679,4.904
1523.4,5.6251,5.5436
1535.2,7.0157,6.8861
1546.9,6.7085,6.4083
1558.6,6.0958,6.5305
1570.3,5.8171,4.7043
1582,6.4849,3.2893
1593.8,6.3756,3.6154
1605.5,5.7691,4.343
1617.2,5.511,0.69302
1628.9,3.632,4.1661
1640.6,2.5492,4.1365
1652.3,4.4733,0.86015
1664.1,4.2618,2.0657
1675.8,2.8494,4.6088
1687.5,4.1469,5.7333
1699.2,4.2963,7.7897
1710.9,3.366,4.6075
1722.7,1.7799,2.78
1734.4,3.0528,4.6582
1746.1,4.2167,2.7526
1757.8,4.4707,5.061
1769.5,3.9525,4.7451
1781.3,6.4079,3.8296
1793,6.1691,2.7873
1804.7,8.1454,1.3524
1816.4,16.687,1.2951
1828.1,36.249,14.146
1839.8,46.994,25.007
1851.6,44.966,23.243
1863.3,26.755,9.1626
1875,12.827,5.8946
1886.7,6.5591,5.3952
1898.4,6.4095,3.6728
1910.2,6.1006,2.6829
1921.9,-0.28807,1.0728
1933.6,1.1137,-0.31745
1945.3,1.9775,2.0183
1957,3.3684,5.4168
1968.8,4.3081,3.894
1980.5,4.4703,3.6908
1992.2,2.8686,1.1042
2003.9,2.7103,1.6225
2015.6,1.9762,1.6347
2027.3,-0.29529,3.8267
2039.1,1.8564,5.984
2050.8,2.3274,3.0829
2062.5,1.1457,3.7619
2074.2,0.10287,3.0242
2085.9,0.31024,4.6705
2097.7,-0.57135,4.6715
2109.4,6.7626,4.7838
2121.1,6.0455,3.3952
2132.8,2.1162,3.0186
2144.5,-0.10778,2.265
2156.3,1.2864,1.9128
2168,1.1261,2.7513
2179.7,2.9913,1.5247
2191.4,-0.88342,-2.9291
2203.1,2.0209,1.7239
2214.8,1.2903,2.3957
2226.6,-0.02878,3.6646
2238.3,1.9451,1.4415
2250,0.32923,1.9082
2261.7,-1.4467,1.5302
2273.4,1.424,-0.18049
2285.2,3.8024,2.3828
2296.9,-2.6788,0.55714
2308.6,0.33348,0.0934
2320.3,-0.68242,-0.52784
2332,0.4536,-1.4447
2343.8,-2.7777,-0.37306
2355.5,1.3051,-3.4408
2367.2,6.654,3.6292
2378.9,7.3998,6.1526
2390.6,3.4108,5.1885
2402.3,-1.8805,3.1853
2414.1,0.23611,1.4322
2425.8,3.1931,3.1736
2437.5,2.697,0.8243
2449.2,0.03969,2.0543
2460.9,-1.3448,3.7623
2472.7,-0.46259,2.2113
2484.4,1.5531,0.95936
2496.1,0.89091,2.9987
2507.8,-0.14647,3.0662
2519.5,-0.35506,-0.93837
2531.3,2.6096,-0.10255
2543,3.8462,2.1887
2554.7,-0.49704,2.0249
2566.4,0.23021,0.41214
2578.1,2.5461,1.9695
2589.8,1.8381,0.66456
2601.6,0.53348,3.5587
2613.3,-3.6868,3.8999
2625,-1.5991,2.1129
2636.7,-0.67585,-1.5475
2648.4,-0.26656,-3.6062
2660.2,-2.5109,0.68334
2671.9,-0.86599,0.27106
2683.6,0.23784,-1.563
2695.3,0.45346,0.1865
2707,0.99496,-1.6103
2718.8,-0.56503,-2.9943
2730.5,-0.8966,-2.3441
2742.2,-2.7756,-0.072726
2753.9,1.2179,0.41056
2765.6,1.7154,0.42244
2777.3,-0.082998,1.967
2789.1,0.082901,-0.23118
2800.8,-0.012345,-0.24841
2812.5,-2.2674,0.86229
2824.2,-3.1792,0.69986
2835.9,-0.99153,1.462
2847.7,-1.2182,2.5792
2859.4,-2.3641,0.0034034
2871.1,-1.0531,-0.73145
2882.8,0.91583,1.5042
2894.5,1.237,4.3439
2906.3,1.445,0.75022
2918,1.0663,0.5493
2929.7,1.0476,-0.30165
2941.4,-5.2462,-2.6243
2953.1,-0.6592,-0.80001
2964.8,2.7581,-0.54205
2976.6,2.1326,-1.9029
2988.3,-0.80812,-1.1728
3000,-0.39573,-0.35815
3011.7,-0.66848,-2.4716
3023.4,1.3131,-1.8449
3035.2,1.3733,0.1289
3046.9,0.088526,2.0095
3058.6,-0.020777,2.1154
3070.3,1.4153,1.3356
3082,-2.0253,-1.182
3093.8,0.28476,-2.1693
3105.5,-1.4669,-2.7552
3117.2,-2.7926,0.209
3128.9,-3.2473,-0.6236
3140.6,-3.837,0.36704
3152.3,-1.3586,1.1163
3164.1,0.50302,0.94901
3175.8,0.59561,-0.79927
3187.5,-0.63516,-3.8172
3199.2,-0.92638,-0.49543
3210.9,-0.89218,0.057506
3222.7,-4.009,-0.22826
3234.4,-3.846,1.5149
3246.1,-1.4449,0.5751
3257.8,0.94964,2.183
3269.5,-0.59523,1.0923
3281.3,-4.3451,-3.5069
3293,-2.565,-2.6397
3304.7,-3.5051,-0.65027
3316.4,-3.9024,-0.31586
3328.1,-0.32355,0.99465
3339.8,-1.524,0.62486
3351.6,-4.1798,-3.0168
3363.3,-2.5441,-1.4651
3375,0.5647,0.069393
3386.7,-0.19436,-2.4264
3398.4,0.6506,-1.863
3410.2,2.0013,1.1359
3421.9,1.3933,0.42732
3433.6,-1.1412,-3.3915
3445.3,-2.707,0.29248
3457,-4.2139,-1.226
3468.8,-0.36199,-0.81308
3480.5,0.58592,-1.5537
3492.2,0.1574,-2.3748
3503.9,-1.3569,-2.7934
3515.6,-4.8185,-5.4325
3527.3,-1.7269,-1.7654
3539.1,-0.77446,0.22078
3550.8,1.1382,0.52004
3562.5,0.52741,1.2632
3574.2,-0.65462,-0.28693
3585.9,-2.1513,-1.6558
3597.7,-3.8066,-1.0516
3609.4,-0.44377,-1.8766
3621.1,1.8263,-3.3665
3632.8,-1.6404,0.092209
3644.5,-1.5394,1.4985
3656.3,-1.5224,-1.3465
3668,-0.67795,-3.1406
3679.7,-0.20583,-3.6856
3691.4,-1.3529,-1.3815
3703.1,-2.6922,-0.27888
3714.8,-0.28618,-2.8057
3726.6,-2.2677,-3.7274
3738.3,-4.3323,-2.7832
3750,-1.2856,-1.9324
3761.7,1.3388,0.68086
3773.4,-0.76151,-0.27989
3785.2,-3.3055,-1.9889
3796.9,-1.7749,0.84624
3808.6,2.4559,2.0738
3820.3,0.4112,0.50093
3832,-0.48707,0.57159
3843.8,-1.9867,0.14594
3855.5,-2.9708,-0.60377
3867.2,-1.8602,-0.1
3878.9,-3.6061,-1.8453
3890.6,-3.9242,1.1741
3902.3,-2.7445,-0.82988
3914.1,-2.2038,-2.8345
3925.8,-1.7054,-0.92539
3937.5,-4.4261,-0.32349
3949.2,-3.7224,0.5211
3960.9,-2.2442,-1.0647
3972.7,-2.2799,-2.2893
3984.4,-3.6135,0.10356
3996.1,-3.074,-0.40491
4007.8,-1.414,-3.543
4019.5,-1.0651,-3.903
4031.3,0.47738,-2.628
4043,0.84466,-1.8102
4054.7,-5.7776,-2.6467
4066.4,-1.2947,-1.8566
4078.1,-3.2421,0.98493
4089.8,-3.3646,-2.0241
4101.6,-3.4156,-3.0043
4113.3,-4.3391,1.2002
4125,-4.0744,1.5741
4136.7,-1.4449,-0.61756
4148.4,-0.73824,-1.7421
4160.2,-2.0572,-3.6453
4171.9,-4.8917,-3.3578
4183.6,-3.2071,-2.2955
4195.3,-2.0917,-1.1748
4207,-3.1297,-0.83882
4218.8,-3.5687,-2.6548
4230.5,-1.5269,-1.5238
4242.2,-0.037289,0.70209
4253.9,-4.3694,-0.38066
4265.6,-5.0018,-2.6517
4277.3,-4.6712,-1.3765
4289.1,-2.0093,-0.63267
4300.8,-2.0381,-1.5885
4312.5,-0.44187,0.52083
4324.2,0.27904,0.44548
4335.9,-1.1508,-1.6891
4347.7,0.053138,-1.8241
4359.4,-1.242,-0.86209
4371.1,-3.3792,0.61034
4382.8,-5.6476,-0.44761
4394.5,-2.9069,0.59551
4406.3,-3.6587,0.46404
4418,-2.6046,-0.19895
4429.7,-1.9312,-0.65528
4441.4,-3.2745,-3.5809
4453.1,-3.5724,-3.0443
4464.8,-4.4664,-1.566
4476.6,-2.985,-2.5627
4488.3,-1.3621,-3.8669
4500,-4.7393,-0.98959
4511.7,-5.6109,-0.6194
4523.4,0.83821,-3.0753
4535.2,0.57029,-3.0721
4546.9,-2.8433,-3.1161
4558.6,-2.3058,-3.8689
4570.3,-3.7422,-3.088
4582,-4.0881,-2.873
4593.8,-2.7573,-5.2506
4605.5,-2.8434,-6.9696
4617.2,-2.5802,-4.6234
4628.9,-0.52078,-2.6557
4640.6,-0.74643,-1.779
4652.3,-5.4551,-0.15604
4664.1,-6.2512,-1.1878
4675.8,-4.8866,-1.9775
4687.5,-1.7507,-0.023213
4699.2,0.13456,0.80098
4710.9,-2.7502,-0.51003
4722.7,-2.6434,-1.6686
4734.4,-2.9991,-2.4578
4746.1,-5.0315,-3.4113
4757.8,-5.8599,-4.1441
4769.5,-3.606,-0.72281
4781.3,-3.0633,-2.2743
4793,-2.6593,-4.0961
4804.7,-1.2399,-5.1798
4816.4,-1.9278,-2.7169
4828.1,-3.9983,-2.8229
4839.8,-4.4882,-3.0177
4851.6,-4.3255,-2.4266
4863.3,-7.6205,-1.7339
4875,-4.8475,-3.3849
4886.7,-3.7536,-2.0082
4898.4,-4.9899,-3.0287
4910.2,-1.1256,-5.1333
4921.9,-1.9403,-3.3872
4933.6,-4.0685,-3.1927
4945.3,-5.7891,-2.7045
4957,-4.7424,-3.4874
4968.8,-2.7247,-5.9031
4980.5,-3.8391,-4.8476
4992.2,-3.7124,-4.2694
5003.9,-4.4888,-4.1009
5015.6,-7.8267,-3.5686
5027.3,-5.7306,-6.7613
5039.1,-2.8427,-2.5116
5050.8,-2.6335,-2.032
5062.5,-4.6711,-3.1681
5074.2,-4.1205,-5.6103
5085.9,-5.833,-8.4735
5097.7,-3.4746,-1.6465
5109.4,-6.2715,0.90817
5121.1,-5.0523,-1.6916
5132.8,-2.1897,-4.0403
5144.5,-4.8248,-4.355
5156.3,-6.9056,-0.45149
5168,-6.1855,0.56852
5179.7,-7.1206,-2.0629
5191.4,-5.2465,-3.5953
5203.1,-3.3962,-3.4348
5214.8,-5.3628,-5.005
5226.6,-1.954,0.24399
5238.3,-3.833,-1.0644
5250,-4.1163,-5.8664
5261.7,-3.0248,-6.7772
5273.4,-3.1853,-3.4512
5285.2,-6.0417,-3.1849
5296.9,-6.4962,-4.2058
5308.6,-3.6642,-5.2012
5320.3,-4.8505,-3.5411
5332,-2.8314,-2.665
5343.8,-1.8017,-1.6485
5355.5,-5.3528,0.016282
5367.2,-4.6512,-2.7846
5378.9,-4.1286,-3.0988
5390.6,-1.435,-4.2001
5402.3,-2.842,-2.2736
5414.1,-3.9765,-3.165
5425.8,-3.5207,-4.7137
5437.5,-3.1791,-3.7988
5449.2,-6.1459,-2.5013
5460.9,-5.6795,-0.032214
5472.7,-5.7189,-0.44658
5484.4,-7.7372,-3.0846
5496.1,-4.3238,-4.1751
5507.8,-4.0149,-1.7828
5519.5,-5.6271,-0.57497
5531.3,-0.77504,-0.46112
5543,-2.4282,-0.65377
5554.7,-3.8079,1.3414
5566.4,-3.9851,-2.8142
5578.1,-4.8782,-0.52497
5589.8,-4.7557,-3.2292
5601.6,-2.7583,-1.1832
5613.3,-4.216,-0.32058
5625,-4.3802,-0.26372
5636.7,-4.1244,0.46313
5648.4,-2.9033,-1.6369
5660.2,-2.0593,-5.5202
5671.9,-3.8681,-3.9954
5683.6,-5.4992,-1.5697
5695.3,-3.1767,-2.3807
5707,-3.6942,-2.4289
5718.8,-1.568,-1.2517
5730.5,-0.70882,-0.23041
5742.2,-1.1696,-1.4231
5753.9,-4.0137,-2.3663
5765.6,-6.2228,1.8056
5777.3,-3.2681,1.6272
5789.1,-4.4788,-2.517
5800.8,-7.4421,-3.4489
5812.5,-5.438,-1.0158
5824.2,-8.1198,-1.7606
5835.9,-8.5349,-3.4032
5847.7,-7.1117,-2.0343
5859.4,-6.5464,-1.0764
5871.1,-4.6319,-1.6947
5882.8,-4.1626,-2.5089
5894.5,-5.6433,-2.8232
5906.3,-4.1111,-5.4125
5918,-4.3108,-1.9335
5929.7,-1.6881,0.034143
5941.4,0.38625,-4.1519
5953.1,-4.4857,-6.2758
5964.8,-4.7208,-3.7168
5976.6,-3.2908,-0.087903
5988.3,-4.3581,-0.076103
6000,-3.6598,-4.6924
6011.7,-2.1047,-4.9516
6023.4,-2.8682,-4.3435
6035.2,-2.2257,-3.5062
6046.9,-5.908,-4.5219
6058.6,-5.5938,-4.2093
6070.3,-1.6236,-4.1081
6082,-1.0249,-1.2226
6093.8,-2.7031,-0.61307
6105.5,-4.9438,-1.933
6117.2,-5.7141,0.091173
6128.9,-4.2855,-1.1064
6140.6,-5.1997,-2.5423
6152.3,-5.2616,-0.070403
6164.1,-4.0411,-0.052415
6175.8,-3.7199,-1.4458
6187.5,-3.7187,-2.8038
6199.2,-1.742,-5.5414
6210.9,-4.2166,-2.8452
6222.7,-4.3155,-3.8572
6234.4,-4.3914,-6.5056
6246.1,-3.5479,-5.9528
6257.8,-1.4051,-7.2293
6269.5,-2.0212,-4.8265
6281.3,-2.8659,-2.9898
6293,-4.0257,-2.5197
6304.7,-7.9346,-3.1507
6316.4,-5.6278,-4.2168
6328.1,-5.7818,-5.3776
6339.8,-7.148,-5.0804
6351.6,-6.577,-6.4586
6363.3,-6.4201,-4.8676
6375,-6.3521,-3.0023
6386.7,-5.8083,-0.023791
6398.4,-7.2597,0.046045
6410.2,-6.6095,-3.0265
6421.9,-4.8505,-5.6549
6433.6,-2.8088,-4.9159
6445.3,-3.2163,-2.2692
6457,-4.9982,-2.8298
6468.8,-9.2179,-3.8529
6480.5,-4.0812,-5.1608
6492.2,-1.5413,-3.8368
6503.9,-0.64259,-2.5515
6515.6,-2.9209,-4.4844
6527.3,-6.055,-3.5047
6539.1,-4.4231,-2.0698
6550.8,-6.6469,-1.7098
6562.5,-5.3203,-1.4019
6574.2,-4.8953,-3.8623
6585.9,-2.6058,-2.7026
6597.7,-1.6224,-2.5497
6609.4,-3.9589,-4.9474
6621.1,-3.6692,-3.1809
6632.8,-5.2303,-3.7892
6644.5,-4.6511,-9.6097
6656.3,-5.6565,-7.9827
6668,-6.4029,-6.2969
6679.7,-5.1725,-3.622
6691.4,-6.2756,-2.6097
6703.1,-6.2439,-3.2004
6714.8,-4.1499,-3.2145
6726.6,-3.1569,-5.2499
6738.3,-5.8135,-6.9151
6750,-6.8016,-6.3262
6761.7,-4.4584,-7.3578
6773.4,-4.9233,-4.8179
6785.2,-10.237,-6.8729
6796.9,-4.4738,-10.058
6808.6,-7.5097,-7.903
6820.3,-5.3842,-6.1687
6832,-3.989,-3.7911
6843.8,-5.3072,-3.4235
6855.5,-4.5083,-7.1198
6867.2,-8.7105,-4.747
6878.9,-6.1334,-5.8998
6890.6,-6.1448,-5.6435
6902.3,-7.4624,-6.9348
6914.1,-8.3601,-9.6821
6925.8,-9.1463,-5.2796
6937.5,-7.8826,-7.2931
6949.2,-6.1165,-7.4402
6960.9,-6.4026,-7.048
6972.7,-7.1626,-6.4104
6984.4,-5.7803,-3.8121
6996.1,-7.5916,-3.4203
7007.8,-9.1976,-6.4626
7019.5,-8.4896,-7.2311
7031.3,-7.5152,-4.8065
7043,-8.1826,-4.2689
7054.7,-4.3452,-8.1778
7066.4,-4.1297,-5.6429
7078.1,-4.5159,-3.8762
7089.8,-3.5455,-8.3181
7101.6,-7.9698,-5.6299
7113.3,-10.134,-5.7951
7125,-5.82,-4.5941
7136.7,-4.8416,-5.7133
7148.4,-6.2498,-6.1156
7160.2,-10.306,-7.0445
7171.9,-12.074,-8.1541
7183.6,-8.2844,-8.695
7195.3,-9.3176,-5.9939
7207,-8.0414,-8.3641
7218.8,-3.9679,-6.555
7230.5,-4.5854,-6.7873
7242.2,-3.4014,-7.1997
7253.9,-4.8828,-6.4158
7265.6,-7.0853,-6.6613
7277.3,-8.881,-6.9373
7289.1,-8.3477,-7.7244
7300.8,-5.9241,-6.3315
7312.5,-5.886,-6.478
7324.2,-7.3354,-6.4422
7335.9,-8.2097,-5.386
7347.7,-9.9618,-4.1923
7359.4,-8.705,-4.7957
7371.1,-6.0662,-6.9693
7382.8,-8.0773,-5.9208
7394.5,-8.027,-5.875
7406.3,-9.9482,-6.3027
7418,-8.6806,-5.4435
7429.7,-5.7576,-6.2682
7441.4,-6.7269,-7.6202
7453.1,-6.5427,-4.2179
7464.8,-8.8124,-4.6481
7476.6,-10.207,-7.461
7488.3,-8.4678,-7.316
7500,-8.5196,-6.2998
7511.7,-8.2991,-4.6835
7523.4,-9.0728,-3.0262
7535.2,-11.224,-5.668
7546.9,-7.9706,-8.3696
7558.6,-6.9731,-8.1258
7570.3,-8.4374,-8.0075
7582,-9.3092,-10.193
7593.8,-7.5444,-6.8684
7605.5,-8.2156,-6.4051
7617.2,-8.9457,-6.1374
7628.9,-6.4758,-6.0597
7640.6,-9.381,-6.3549
7652.3,-11.682,-5.7275
7664.1,-8.3595,-7.3317
7675.8,-8.582,-8.6319
7687.5,-9.4224,-6.5336
7699.2,-10.931,-9.1756
7710.9,-11.222,-4.918
7722.7,-10.919,-4.0109
7734.4,-9.1886,-6.447
7746.1,-7.7217,-6.9503
7757.8,-7.7722,-8.681
7769.5,-10.562,-10.612
7781.3,-11.026,-8.0855
7793,-10.547,-6.3522
7804.7,-11.284,-7.5758
7816.4,-9.013,-7.1306
7828.1,-12.95,-7.5145
7839.8,-10.049,-8.5729
7851.6,-7.0641,-7.426
7863.3,-6.6938,-6.6277
7875,-7.4209,-8.8394
7886.7,-7.8928,-8.0456
7898.4,-8.2021,-6.6408
7910.2,-9.5097,-10.907
7921.9,-8.4137,-5.7283
7933.6,-7.7815,-5.5844
7945.3,-8.4579,-9.9179
7957,-7.6423,-6.223
7968.8,-8.4375,-5.6208
7980.5,-3.9804,-7.9203
7992.2,-2.0784,-9.378
8003.9,-3.5097,-11.779
8015.6,-6.211,-7.7155
8027.3,-10.388,-8.6364
8039.1,-7.4869,-11.839
8050.8,-7.2724,-10.914
8062.5,-9.7967,-9.0237
8074.2,-8.493,-10.27
8085.9,-8.3977,-8.9584
8097.7,-7.2235,-9.237
8109.4,-5.9904,-9.3993
8121.1,-9.1642,-11.742
8132.8,-5.526,-10.233
8144.5,-6.371,-11.286
8156.3,-7.5958,-10.421
8168,-7.859,-7.172
8179.7,-9.9891,-7.1024
8191.4,-7.676,-12.185
8203.1,-8.3056,-11.776
8214.8,-8.1016,-8.7242
8226.6,-7.5298,-8.5021
8238.3,-6.1038,-9.3875
8250,-10.362,-8.5416
8261.7,-11.72,-10.219
8273.4,-9.5316,-10.499
8285.2,-12.645,-8.9805
8296.9,-11.699,-7.4899
8308.6,-8.3881,-10.455
8320.3,-8.7933,-11.578
8332,-10.167,-10.468
8343.8,-10.739,-6.4154
8355.5,-7.9745,-6.7321
8367.2,-4.9234,-8.3773
8378.9,-9.3629,-6.0799
8390.6,-6.5925,-6.6024
8402.3,-6.3919,-8.7981
8414.1,-9.5493,-8.7927
8425.8,-13.06,-9.1737
8437.5,-11.469,-6.9389
8449.2,-10.509,-8.1132
8460.9,-12.052,-10.569
8472.7,-10.982,-11.212
8484.4,-9.901,-10.002
8496.1,-7.1597,-8.6536
8507.8,-7.4928,-8.5836
8519.5,-8.2599,-8.8071
8531.3,-7.51,-8.9739
8543,-7.536,-9.7981
8554.7,-7.8626,-11.436
8566.4,-8.1971,-10.604
8578.1,-8.304,-7.4234
8589.8,-8.1593,-8.0614
8601.6,-9.2155,-9.4119
8613.3,-8.6097,-12.192
8625,-7.8035,-10.516
8636.7,-7.6653,-7.4202
8648.4,-9.9689,-6.0644
8660.2,-10.428,-8.6421
8671.9,-10.435,-9.2599
8683.6,-10.747,-11.314
8695.3,-10.735,-10.371
8707,-10.347,-10.187
8718.8,-7.6889,-10.08
8730.5,-8.0067,-9.9742
8742.2,-9.9162,-8.1528
8753.9,-12.041,-10.199
8765.6,-7.6599,-8.8378
8777.3,-8.7416,-9.9449
8789.1,-11.426,-10.456
8800.8,-14.938,-8.2961
8812.5,-12.116,-4.8566
8824.2,-9.1398,-7.5923
8835.9,-10.404,-10.632
8847.7,-10.237,-9.7223
8859.4,-12.189,-10.354
8871.1,-13.241,-10.995
8882.8,-11.215,-8.357
8894.5,-8.6067,-6.7016
8906.3,-7.7388,-8.9176
8918,-10.348,-10.766
8929.7,-9.8082,-7.2095
8941.4,-11.705,-10.328
8953.1,-9.2313,-8.7078
8964.8,-8.7606,-8.7507
8976.6,-9.3473,-12.057
8988.3,-10.254,-9.7635
9000,-11.29,-10.942
9011.7,-11.58,-10.753
9023.4,-9.0265,-8.1516
9035.2,-7.9172,-8.4576
9046.9,-6.3794,-9.9467
9058.6,-8.6339,-9.4941
9070.3,-9.7421,-10.254
9082,-9.4637,-8.8596
9093.8,-10.048,-8.4106
9105.5,-8.4978,-12.986
9117.2,-9.8162,-13.2
9128.9,-10.034,-9.5898
9140.6,-8.2354,-9.9538
9152.3,-8.0471,-6.5901
9164.1,-8.7006,-9.6472
9175.8,-10.193,-10.275
9187.5,-9.8209,-9.7634
9199.2,-7.7442,-8.3868
9210.9,0.67335,-7.6059
9222.7,1.823,-7.2095
9234.4,-6.5214,-8.0503
9246.1,-11.129,-9.1024
9257.8,-11.483,-12.515
9269.5,-10.323,-9.4488
9281.3,-8.1678,-9.5139
9293,-7.9723,-9.6042
9304.7,-7.639,-10.917
9316.4,-8.1667,-10.717
9328.1,-10.273,-9.0814
9339.8,-12.602,-9.4339
9351.6,-12.033,-9.5587
9363.3,-9.2048,-7.1022
9375,-9.7381,-8.0373
9386.7,-10.409,-9.3249
9398.4,-10.445,-7.9314
9410.2,-7.1512,-7.944
9421.9,-7.9249,-9.8641
9433.6,-10.746,-9.431
9445.3,-10.751,-8.9583
9457,-9.1276,-9.2771
9468.8,-9.4286,-10.95
9480.5,-10.88,-10.64
9492.2,-9.9431,-13.176
9503.9,-9.6401,-12.658
9515.6,-10.987,-11.106
9527.3,-10.681,-9.4148
9539.1,-11.189,-9.3459
9550.8,-11.002,-8.0288
9562.5,-7.8442,-8.7442
9574.2,-8.4901,-9.0528
9585.9,-8.1398,-10.169
9597.7,-8.187,-10.627
9609.4,-11.953,-11.508
9621.1,-8.7788,-9.3783
9632.8,-9.3564,-7.2519
9644.5,-12.848,-8.7461
9656.3,-12.17,-11.065
9668,-6.5382,-11.42
9679.7,-7.7555,-11.699
9691.4,-12.762,-12.564
9703.1,-11.808,-11.239
9714.8,-10.674,-11.2
9726.6,-6.4225,-11.746
9738.3,-9.3839,-13.402
9750,-10.377,-11.886
9761.7,-11.185,-9.767
9773.4,-11.912,-9.7451
9785.2,-12.25,-11.04
9796.9,-11.686,-11.091
9808.6,-12.117,-10.707
9820.3,-8.6839,-11.259
9832,-8.5233,-11.581
9843.8,-9.9092,-13.393
9855.5,-9.2873,-13.857
9867.2,-10.258,-11.617
9878.9,-9.8945,-13.135
9890.6,-12.979,-13.706
9902.3,-7.9977,-10.245
9914.1,-7.1161,-8.7265
9925.8,-9.4983,-11.785
9937.5,-10.773,-11.016
9949.2,-10.699,-13.003
9960.9,-10.847,-12.828
9972.7,-13.532,-9.024
9984.4,-14.729,-11.592
9996.1,-13.875,-14.68
10008,-11.201,-14.135
10020,-9.19,-10.388
10031,-9.5897,-11.211
10043,-10.931,-12.295
10055,-9.7805,-9.2962
10066,-11.266,-9.9374
10078,-11.143,-13.881
10090,-9.6698,-14.133
10102,-10.199,-14.105
10113,-10.258,-10.733
10125,-10.664,-9.5085
10137,-10.395,-8.5591
10148,-8.4246,-9.8521
10160,-9.9339,-11.762
10172,-11.752,-12.471
10184,-11.233,-14.592
10195,-9.9842,-13.06
10207,-11.972,-9.9505
10219,-10.739,-11.441
10230,-9.3966,-10.113
10242,-8.7147,-12.056
10254,-9.2839,-7.4952
10266,-11.035,-10.099
10277,-8.1976,-10.851
10289,-8.6044,-12.101
10301,-9.1325,-13.217
10313,-9.048,-13.045
10324,-10.19,-15.548
10336,-14.448,-10.954
10348,-13.395,-11.704
10359,-10.69,-9.5677
10371,-9.7596,-10.987
10383,-6.8373,-12.772
10395,-8.154,-12.024
10406,-12.924,-10.483
10418,-10.422,-10.231
10430,-8.7506,-13.33
10441,-7.7651,-17.171
10453,-7.9752,-8.0029
10465,-11.021,-6.7652
10477,-10.217,-8.3607
10488,-11.488,-8.6856
10500,-13.435,-10.333
10512,-12.314,-13.85
10523,-10.388,-12.804
10535,-10.576,-11.999
10547,-8.5512,-10.797
10559,-8.0264,-10.062
10570,-9.3214,-11.931
10582,-12.018,-15.473
10594,-10.984,-15.548
10605,-10.801,-14.449
10617,-13.33,-13.036
10629,-11.594,-11.781
10641,-9.9533,-13.38
10652,-10.697,-12.257
10664,-14.308,-11.214
10676,-11.389,-15.648
10688,-12.762,-18.216
10699,-9.9884,-14.349
10711,-10.6,-10.349
10723,-10.739,-9.8371
10734,-10.927,-12.24
10746,-12.488,-14.792
10758,-13.406,-14.661
10770,-11.446,-14.655
10781,-13.709,-13.607
10793,-11.189,-12.662
10805,-9.3002,-12.717
10816,-11.478,-12.384
10828,-12.058,-13.051
10840,-11.385,-13.645
10852,-12.081,-12.038
10863,-8.8196,-11.765
10875,-7.6011,-13.309
10887,-14.463,-14.917
10898,-15.445,-12.78
10910,-14.697,-12.045
10922,-14.547,-12.261
10934,-10.551,-13.415
10945,-9.636,-11.381
10957,-9.8801,-10.357
10969,-11.371,-12.178
10980,-14.861,-12.569
10992,-13.031,-13.441
11004,-13.556,-15.888
11016,-12.509,-14.826
11027,-13.312,-11.574
11039,-11.397,-12.663
11051,-10.726,-11.551
11063,-11.67,-11.556
11074,-12.111,-10.937
11086,-10.989,-11.688
11098,-11.497,-13.839
11109,-12.233,-14.952
11121,-10.001,-12.275
11133,-10.806,-11.47
11145,-11.006,-11.254
11156,-9.2815,-11.331
11168,-11.455,-12.703
11180,-12.094,-14.485
11191,-10.728,-16.37
11203,-13.165,-16.009
11215,-13.339,-14.084
11227,-14.409,-11.073
11238,-13.787,-12.881
11250,-11.834,-11.789
11262,-14.044,-12.476
11273,-11.956,-11.908
11285,-10.317,-10.765
11297,-9.5506,-10.026
11309,-10.855,-11.556
11320,-11.017,-8.2032
11332,-12.901,-10.003
11344,-12.164,-12.475
11355,-6.6689,-10.332
11367,-8.2047,-11.471
11379,-10.4,-12.033
11391,-11.936,-13.225
11402,-15.757,-10.203
11414,-10.074,-10.711
11426,-8.4427,-11.354
11438,-9.3738,-10.29
11449,-11.642,-9.9324
11461,-9.914,-12.919
11473,-9.4042,-14.106
11484,-6.9648,-16.295
11496,-8.007,-17.271
11508,-8.5873,-14.944
11520,-9.0279,-11.284
11531,-11.637,-11.747
11543,-10.589,-10.382
11555,-11.829,-12.004
11566,-11.959,-13.722
11578,-10.612,-13.92
11590,-12.576,-12.282
11602,-12.41,-13.586
11613,-8.976,-14.259
11625,-10.109,-16.098
11637,-13.355,-13.096
11648,-11.886,-13.487
11660,-10.272,-13.31
11672,-10.027,-12.425
11684,-9.3631,-11.093
11695,-9.5597,-11.914
11707,-13.215,-13.923
11719,-12.328,-13.985
11730,-11.495,-14.898
11742,-12.704,-19.01
11754,-12.21,-17.469
11766,-11.881,-15.916
11777,-9.7322,-14.676
11789,-6.9498,-13.049
11801,-8.1147,-11.952
11813,-11.653,-11.23
11824,-13.857,-11.123
11836,-12.923,-12.198
11848,-12.648,-11.034
11859,-13.216,-12.434
11871,-10.517,-15.219
11883,-9.8457,-15.301
11895,-11.137,-15.723
11906,-11.991,-13.417
11918,-11.84,-12.251
11930,-10.82,-13.092
11941,-12.044,-11.542
11953,-11.418,-13.358
11965,-12.058,-14.912
11977,-13.202,-13.213
11988,-10.129,-10.976
12000,-9.6567,-11.891
12012,-11.032,-13.343
12023,-8.1399,-12.946
12035,-6.8954,-14.066
12047,-7.9291,-14.226
12059,-10.936,-14.395
12070,-13.439,-14.666
12082,-11.907,-13.813
12094,-10.011,-13.796
12105,-10.662,-12.792
12117,-9.0636,-14.209
12129,-10.035,-12.956
12141,-12.43,-14.536
12152,-10.755,-12.095
12164,-10.705,-12.795
12176,-11.079,-14.314
12188,-12.067,-14.266
12199,-11.206,-14.007
12211,-9.1931,-15.04
12223,-8.1528,-12.725
12234,-7.6443,-14.188
12246,-8.2302,-15.819
12258,-8.4747,-11.945
12270,-6.8418,-9.6894
12281,-8.4604,-10.814
12293,-9.7086,-12.643
12305,-9.935,-14.441
12316,-9.5595,-15.228
12328,-9.8981,-11.251
12340,-10.749,-12.665
12352,-14.66,-12.076
12363,-12.384,-13.127
12375,-9.3669,-16.991
12387,-12.528,-13.526
12398,-13.089,-15.161
12410,-12.517,-15.335
12422,-9.1835,-14.577
12434,-9.497,-16.594
12445,-11.768,-16.683
12457,-12.371,-16.472
12469,-12.677,-14.195
12480,-14.039,-11.337
12492,-13.951,-12.797
12504,-11.098,-14.034
12516,-11.631,-13.104
12527,-11.994,-15.449
12539,-10.214,-14.495
12551,-9.6292,-14.041
12563,-11.452,-13.132
12574,-11.66,-9.9386
12586,-12.176,-13.717
12598,-9.6397,-14.197
12609,-7.5977,-14.109
12621,-9.8978,-15.137
12633,-12.147,-13.839
12645,-13.112,-11.613
12656,-11.205,-12.87
12668,-11.245,-13.51
12680,-11.096,-14.217
12691,-10.743,-18.001
12703,-11.158,-13.842
12715,-12.286,-14.297
12727,-13.046,-16.988
12738,-12.467,-14.215
12750,-11.848,-13.604
12762,-10.677,-16.355
12773,-10.552,-15.026
12785,-9.3499,-13.889
12797,-10.291,-13.084
12809,-8.6307,-14.419
12820,-9.7392,-13.471
12832,-10.59,-11.659
12844,-10.541,-11.466
12855,-11.403,-13.29
12867,-9.8737,-12.635
12879,-9.4683,-12.45
12891,-3.4973,-13.901
12902,3.1338,-14.731
12914,0.84743,-19.042
12926,-9.6357,-11.527
12938,-12.064,-11.07
12949,-13.012,-11.472
12961,-11.988,-17.394
12973,-13.268,-18.115
12984,-7.1581,-13.917
12996,-7.6548,-14.933
13008,-11.121,-16.561
13020,-12.219,-17.095
13031,-11.473,-13.397
13043,-9.0237,-12.575
13055,-11.307,-13.618
13066,-11.074,-12.944
13078,-11.834,-13.766
13090,-11.351,-15.636
13102,-11.053,-17.134
13113,-10.567,-16.412
13125,-11.725,-15.768
13137,-10.638,-14.031
13148,-10.562,-12.333
13160,-12.217,-16.638
13172,-13.813,-15.811
13184,-11.289,-14.779
13195,-11.026,-17.007
13207,-12.012,-17.581
13219,-14.467,-16.086
13230,-14.909,-15.119
13242,-15.364,-16.009
13254,-12.163,-18.397
13266,-10.816,-16.358
13277,-12.813,-17.135
13289,-13.625,-17.942
13301,-14.69,-18.661
13313,-14.566,-19.186
13324,-12.174,-15.478
13336,-11.704,-14.617
13348,-12.135,-15.999
13359,-15.265,-15.002
13371,-13.557,-13.005
13383,-12.55,-15.497
13395,-11.634,-16.389
13406,-11.302,-15.897
13418,-12.404,-16.138
13430,-12.559,-16.219
13441,-13.054,-15.25
13453,-16.252,-14.636
13465,-16.237,-15.347
13477,-14.752,-15.996
13488,-13.108,-16.359
13500,-11.225,-12.662
13512,-10.871,-12.167
13523,-11.259,-12.716
13535,-14.307,-14.996
13547,-13.04,-16.908
13559,-13.338,-14.74
13570,-10.77,-13.563
13582,-9.0809,-12.469
13594,-12.508,-12.69
13605,-11.581,-14.612
13617,-12.752,-14.767
13629,-14.553,-15.949
13641,-14.627,-14.431
13652,-14.271,-12.401
13664,-15.53,-14.037
13676,-13.27,-17.668
13688,-14.582,-17.921
13699,-17.277,-16.114
13711,-16.102,-15.948
13723,-15.11,-14.636
13734,-13.139,-14.562
13746,-18.475,-14.068
13758,-14.593,-14.508
13770,-15.453,-16.034
13781,-11.91,-16.183
13793,-11.855,-15.824
13805,-12.827,-17.89
13816,-13.524,-17.379
13828,-13.004,-15.046
13840,-16.908,-13.844
13852,-17.072,-18.038
13863,-14.449,-16.996
13875,-14.156,-17.09
13887,-15.794,-15.245
13898,-12.141,-14.352
13910,-15.249,-14.658
13922,-17.65,-17.787
13934,-12.843,-16.245
13945,-11.91,-13.669
13957,-14.719,-11.071
13969,-16.571,-11.134
13980,-15.797,-13.161
13992,-15.992,-11.863
14004,-19.033,-16.658
14016,-16.307,-13.957
14027,-15.176,-15.596
14039,-13.978,-16.509
14051,-14.306,-16.456
14063,-14.291,-14.964
14074,-14.528,-13.042
14086,-13.654,-12.715
14098,-13.448,-16.035
14109,-13.732,-17.598
14121,-10.975,-16.768
14133,-13.647,-15.381
14145,-16.057,-12.927
14156,-15.388,-13.762
14168,-13.041,-14.276
14180,-13.703,-18.035
14191,-16.798,-15.768
14203,-17.459,-15.02
14215,-16.051,-15.092
14227,-17.015,-14.057
14238,-16.575,-13.905
14250,-13.549,-17.375
14262,-12.326,-17.107
14273,-13.34,-13.747
14285,-14.826,-14.51
14297,-15.73,-16.712
14309,-17.181,-16.178
14320,-15.309,-16.025
14332,-15.904,-17.031
14344,-15.266,-15.572
14355,-16.137,-15.984
14367,-17.045,-14.861
14379,-14.94,-15.607
14391,-13.834,-13.888
14402,-14.717,-16.762
14414,-13.703,-17.918
14426,-12.476,-15.373
14438,-13.987,-15.821
14449,-14.268,-13.354
14461,-15.294,-13.055
14473,-15.912,-15.246
14484,-14.938,-14.323
14496,-16.654,-15.202
14508,-16.419,-17.287
14520,-18.347,-17.308
14531,-20.688,-12.897
14543,-16.658,-14.103
14555,-12.67,-17.362
14566,-13.022,-17.734
14578,-14.949,-18.096
14590,-14.058,-18.509
14602,-15.093,-17.242
14613,-12.932,-17.487
14625,-11.293,-18.345
14637,-13.24,-15.86
14648,-15.979,-17.133
14660,-15.759,-16.29
14672,-14.339,-15.689
14684,-14.226,-17.1
14695,-13.216,-18.168
14707,-11.884,-18.508
14719,-12.73,-17.794
14730,-12.902,-14.342
14742,-16.092,-13.223
14754,-15.021,-15.294
14766,-14.678,-17.052
14777,-14.937,-15.68
14789,-16.246,-14.966
14801,-13.505,-15.554
14813,-14.482,-15.23
14824,-14.619,-15.213
14836,-15.27,-18.427
14848,-15.795,-21.464
14859,-18.543,-21.996
14871,-17.029,-15.971
14883,-15.783,-14.994
14895,-14.781,-19.215
14906,-14.668,-19.787
14918,-14.494,-18.464
14930,-14.716,-14.259
14941,-15.388,-11.993
14953,-14.075,-12.375
14965,-11.71,-11.149
14977,-14.46,-12.802
14988,-16.119,-15.866
15000,-15.15,-15.431
15012,-16.757,-15.165
15023,-17.785,-13.461
15035,-15.589,-16.731
15047,-14.196,-19.545
15059,-14.291,-16.854
15070,-13.987,-16.551
15082,-10.95,-17.538
15094,-14.889,-18.432
15105,-15.917,-14.911
15117,-16.712,-13.736
15129,-17.699,-16.024
15141,-14.543,-13.895
15152,-13.328,-14.962
15164,-14.631,-16.74
15176,-14.62,-16.93
15188,-13.075,-14.906
15199,-15.771,-16.09
15211,-16.496,-17.74
15223,-15.534,-15.525
15234,-14.774,-15.636
15246,-13.294,-18.911
15258,-14.054,-13.751
15270,-18.106,-13.734
15281,-15.763,-17.228
15293,-12.845,-16.936
15305,-13.351,-15.465
15316,-16.291,-13.903
15328,-17.584,-15.221
15340,-13.774,-17.59
15352,-12.467,-17.399
15363,-12.932,-17.686
15375,-14.939,-17.961
15387,-16.28,-15.865
15398,-14.389,-15.149
15410,-15.003,-15.515
15422,-18.948,-17.403
15434,-16.94,-19.422
15445,-15.319,-18.598
15457,-13.136,-15.471
15469,-13.381,-14.623
15480,-17.589,-18.558
15492,-17.793,-18.443
15504,-17.974,-18.878
15516,-19.391,-16.659
15527,-15.363,-15.18
15539,-12.104,-19.827
15551,-13.069,-20.036
15563,-14.378,-20.776
15574,-16.509,-16.457
15586,-17.245,-15.094
15598,-17.194,-18.927
15609,-18.188,-20.288
15621,-14.821,-17.899
15633,-13.429,-20.087
15645,-14.526,-15.669
15656,-17.687,-15.956
15668,-17.332,-17.541
15680,-14.856,-16.194
15691,-15.499,-16.362
15703,-16.863,-19.124
15715,-17.035,-20.408
15727,-18.358,-17.728
15738,-19.645,-16.695
15750,-17.608,-16.646
15762,-15.423,-18.716
15773,-14.776,-18.436
15785,-16.515,-14.803
15797,-15.068,-13.717
15809,-15.262,-16.185
15820,-15.908,-17.648
15832,-17.296,-18.044
15844,-17.831,-16.254
15855,-16.925,-19.16
15867,-17.034,-16.094
15879,-17.249,-15.995
15891,-16.464,-16.147
15902,-14.682,-15.14
15914,-13.646,-16.336
15926,-14.822,-21.021
15938,-19.32,-18.534
15949,-15.994,-20.454
15961,-16.232,-18.54
15973,-16.665,-15.948
15984,-15.057,-17.264
15996,-13.915,-16.261
16008,-14.649,-16.111
16020,-15.472,-19.723
16031,-18.693,-21.558
16043,-18.603,-17.365
16055,-18.391,-16.415
16066,-18.509,-16.135
16078,-19.777,-18.641
16090,-12.904,-22.565
16102,-14.923,-22.254
16113,-18.488,-19.675
16125,-17.454,-15.597
16137,-15.426,-15.604
16148,-12.724,-17.881
16160,-13.906,-17.803
16172,-20.61,-18.667
16184,-16.743,-17.803
16195,-16.989,-14.684
16207,-18.449,-18.485
16219,-18.891,-20.97
16230,-16.356,-20.321
16242,-17.391,-17.57
16254,-16.541,-19.992
16266,-17.981,-19.866
16277,-19.957,-19.409
16289,-18.03,-19.428
16301,-20.046,-19.711
16313,-22.551,-22.157
16324,-19.023,-21.383
16336,-16.539,-17.98
16348,-15.941,-17.647
16359,-18.31,-19.424
16371,-18.737,-17.192
16383,-16.75,-17.179
16395,-14.846,-18.017
16406,-16.546,-18.936
16418,-17.667,-19.956
16430,-16.27,-21.864
16441,-17.632,-18.762
16453,-18.356,-20.733
16465,-17.562,-20.137
16477,-16.4,-17.342
16488,-19.84,-18.302
16500,-20.841,-19.713
16512,-17.3,-20.62
16523,-15.8,-20.964
16535,-17.223,-18.63
16547,-21.142,-19.481
16559,-18.22,-18.246
16570,-16.546,-16.083
16582,-11.216,-17.558
16594,-8.0362,-16.52
16605,-12.868,-19.277
16617,-16.032,-21.671
16629,-16.454,-21.382
16641,-16.567,-19.478
16652,-18.507,-19.751
16664,-18,-20.801
16676,-16.402,-21.716
16688,-19.61,-19.984
16699,-18.227,-18.042
16711,-21.212,-18.396
16723,-21.354,-21.442
16734,-21.165,-20.187
16746,-18.638,-18.001
16758,-19.591,-19.123
16770,-19.859,-21.228
16781,-19.266,-19.618
16793,-21.093,-17.875
16805,-20.741,-18.784
16816,-21.101,-18.75
16828,-17.819,-19.784
16840,-18.652,-16.198
16852,-19.25,-18.577
16863,-18.108,-19.737
16875,-18.572,-21.445
16887,-16.909,-17.685
16898,-21.679,-19.442
16910,-23.424,-19.813
16922,-21.271,-19.154
16934,-17.193,-20.626
16945,-18.324,-21.667
16957,-21.058,-20.292
16969,-19.355,-19.98
16980,-19.353,-18.813
16992,-18.086,-19.588
17004,-19.299,-19.598
17016,-22.162,-18.401
17027,-19.931,-18.152
17039,-24.811,-18.061
17051,-21.284,-19.923
17063,-20.279,-17.704
17074,-21.242,-17.011
17086,-20.552,-20.681
17098,-18.278,-24.225
17109,-16.81,-23.047
17121,-17.899,-20.132
17133,-16.979,-21.156
17145,-16.967,-20.152
17156,-19.462,-19.998
17168,-21.094,-22.799
17180,-19.005,-22.212
17191,-18.525,-21.19
17203,-22.767,-21.636
17215,-20.808,-21.253
17227,-18.934,-18.977
17238,-19.904,-17.306
17250,-20.532,-19.402
17262,-21.47,-18.983
17273,-19.571,-18.778
17285,-20.64,-19.814
17297,-22.03,-21.032
17309,-22.13,-20.256
17320,-19.92,-20.044
17332,-17.892,-20.185
17344,-17.631,-22.689
17355,-20.448,-20.577
17367,-23.875,-19.544
17379,-21.288,-19.447
17391,-21.084,-20.354
17402,-21.91,-24.489
17414,-18.484,-22.723
17426,-19.716,-20.692
17438,-21.446,-18.986
17449,-21.352,-19.429
17461,-22.833,-25.247
17473,-19.533,-22.851
17484,-17.993,-22.769
17496,-20.367,-19.471
17508,-24.54,-19.605
17520,-23.252,-18.876
17531,-21.94,-20.68
17543,-20.913,-23.365
17555,-21.712,-24.502
17566,-19.689,-22.254
17578,-19.123,-21.033
17590,-21.724,-23.655
17602,-22.795,-26.024
17613,-21.471,-25.976
17625,-19.168,-22.502
17637,-20.164,-18.309
17648,-22.145,-19.797
17660,-21.822,-21.424
17672,-22.583,-18.984
17684,-24.443,-19.295
17695,-24.185,-18.925
17707,-22.604,-17.323
17719,-24.006,-19.458
17730,-22.713,-22.139
17742,-20.883,-24.41
17754,-22.663,-21.144
17766,-22.135,-19.967
17777,-20.713,-24.255
17789,-20.757,-23.309
17801,-21.566,-21.173
17813,-21.662,-21.703
17824,-20.7,-20.838
17836,-22.914,-20.583
17848,-21.667,-19.897
17859,-20.501,-23.3
17871,-20.754,-21.201
17883,-22.353,-19.44
17895,-21.857,-21.695
17906,-21.107,-22.803
17918,-23.377,-20.956
17930,-22.343,-22.588
17941,-20.623,-21.896
17953,-21.512,-20.376
17965,-22.653,-20.427
17977,-22.718,-22.301
17988,-21.601,-22.683
18000,-20.388,-20.039
18012,-21.551,-20.74
18023,-22.384,-20.258
18035,-21.177,-22.225
18047,-20.597,-21.018
18059,-20.217,-22.273
18070,-20.759,-22.441
18082,-22.033,-20.56
18094,-24.195,-23.225
18105,-20.338,-25.026
18117,-22.342,-22.336
18129,-24.189,-20.715
18141,-22.804,-19.893
18152,-21.859,-21.636
18164,-23.356,-22.627
18176,-24.411,-24.155
18188,-20.327,-22.197
18199,-19.268,-20.438
18211,-22.624,-22.897
18223,-23.392,-21.151
18234,-21.292,-20.762
18246,-20.71,-19.012
18258,-20.775,-21.555
18270,-21.492,-23.938
18281,-20.408,-23.128
18293,-22.133,-25.064
18305,-20.75,-21.419
18316,-22.755,-22.467
18328,-22.188,-24.859
18340,-25.436,-22.6
18352,-26.133,-22.685
18363,-24.073,-22.553
18375,-22.693,-20.906
18387,-22.376,-19.565
18398,-21.276,-20.93
18410,-22.551,-20.374
18422,-24.985,-19.002
18434,-21.457,-23.208
18445,-21.08,-22.691
18457,-20.173,-23.208
18469,-20.833,-23.497
18480,-22.686,-24.005
18492,-23.924,-25.278
18504,-21.304,-23.768
18516,-21.11,-22.024
18527,-22.119,-27.609
18539,-24.293,-23.296
18551,-22.248,-20.907
18563,-20.783,-25.1
18574,-21.787,-24.691
18586,-20.349,-22.015
18598,-24.939,-22.079
18609,-22.804,-23.714
18621,-21.999,-21.37
18633,-21.879,-21.83
18645,-21.895,-21.321
18656,-22.687,-22.618
18668,-20.925,-23.59
18680,-20.192,-21.678
18691,-22.288,-23.028
18703,-20.923,-23.052
18715,-22.669,-21.186
18727,-22.225,-23.579
18738,-21.95,-23.69
18750,-23.14,-24.546
18762,-23.252,-24.101
18773,-23.783,-21.442
18785,-21.561,-20.882
18797,-20.874,-21.843
18809,-22.989,-23.316
18820,-22.111,-22.4
18832,-23.515,-23.31
18844,-22.212,-22.768
18855,-24.663,-22.908
18867,-23.45,-22.832
18879,-21.599,-22.825
18891,-23.933,-20.324
18902,-23.368,-21.162
18914,-22.709,-25.333
18926,-21.266,-22.583
18938,-20.06,-22.189
18949,-21.545,-22.702
18961,-23.852,-27.453
18973,-25.162,-23.927
18984,-23.804,-25.523
18996,-26.072,-25.172
19008,-24.409,-24.19
19020,-23.969,-24.299
19031,-22.343,-24.203
19043,-23.499,-22.2
19055,-22.303,-24.101
19066,-22.744,-25.305
19078,-22.047,-21.696
19090,-21.72,-22.445
19102,-22.478,-23.784
19113,-22.086,-23.714
19125,-21.371,-20.574
19137,-21.231,-18.957
19148,-20.923,-19.97
19160,-20.508,-22.733
19172,-21.917,-24.374
19184,-22.482,-23.945
19195,-23.865,-22.221
19207,-24.423,-20.054
19219,-21.252,-19.777
19230,-23.225,-20.284
19242,-21.374,-22.014
19254,-21.972,-22.507
19266,-23.857,-20.01
19277,-22.645,-21.189
19289,-23.181,-29.065
19301,-19.309,-24.788
19313,-19.541,-26.83
19324,-20.942,-27.797
19336,-20.392,-25.543
19348,-20.088,-21.869
19359,-19.14,-19.861
19371,-21.57,-22.123
19383,-22.165,-24.659
19395,-17.91,-24.927
19406,-19.795,-24.034
19418,-24.641,-25.835
19430,-25.419,-26.974
19441,-22.183,-23.892
19453,-18.925,-23.083
19465,-20.148,-23.268
19477,-23.372,-22.478
19488,-23.528,-25.034
19500,-21.911,-22.243
19512,-21.004,-22.06
19523,-22.036,-21.308
19535,-22.36,-22.938
19547,-21.278,-24.218
19559,-23.519,-22.624
19570,-22.024,-22.473
19582,-22.738,-18.722
19594,-22.687,-19.132
19605,-22.358,-21.604
19617,-22.121,-24.408
19629,-22.233,-23.753
19641,-21.245,-22.792
19652,-20.382,-22.831
19664,-20.949,-24.044
19676,-23.341,-24.562
19688,-20.338,-22.463
19699,-16.873,-23.214
19711,-21.84,-20.779
19723,-24.781,-21.71
19734,-21.948,-24.368
19746,-21.028,-25.354
19758,-19.197,-23.977
19770,-20.288,-21.28
19781,-23.361,-21.485
19793,-20.926,-21.2
19805,-19.286,-24.025
19816,-21.575,-26.404
19828,-18.675,-25.809
19840,-19.371,-23.534
19852,-21.65,-24.445
19863,-21.078,-24.297
19875,-20.953,-22.409
19887,-20.629,-24.51
19898,-21.081,-23.437
19910,-19.872,-23.116
19922,-21.193,-21.878
19934,-22.042,-22.441
19945,-20.175,-24.187
19957,-21.933,-26.171
19969,-21.486,-26.604
19980,-20.948,-25.123
19992,-19.974,-23.636
20004,-19.181,-23.99
20016,-19.541,-25.697
20027,-19.431,-24.43
20039,-22.25,-23.506
20051,-19.335,-22.257
20063,-21.132,-22.223
20074,-23.5,-22.324
20086,-21.208,-25.217
20098,-18.032,-24.564
20109,-18.537,-25.172
20121,-22.942,-23.413
20133,-21.787,-20.057
20145,-21.211,-22.725
20156,-20.777,-24.396
20168,-20.438,-25.184
20180,-27.282,-24.56
20191,-24.497,-25.741
20203,-22.423,-26.487
20215,-22.072,-23.183
20227,-20.893,-24.63
20238,-19.226,-25.641
20250,-20.348,-24.297
20262,-20.181,-23.711
20273,-18.772,-22.573
20285,-19.044,-22.898
20297,-23.201,-24.972
20309,-20.383,-23.387
20320,-20.608,-24.893
20332,-23.139,-21.896
20344,-19.66,-24.582
20355,-18.469,-26.725
20367,-19.638,-24.725
20379,-16.963,-24.942
20391,-17.171,-25.413
20402,-19.747,-25.876
20414,-21.713,-24.812
20426,-23.276,-23.639
20438,-23.537,-22.723
20449,-20.463,-25.701
20461,-20.027,-26.22
20473,-20.862,-24.724
20484,-21.611,-23.87
20496,-21.075,-25.679
20508,-20.103,-26.348
20520,-21.079,-23.902
20531,-21.186,-25.256
20543,-19.649,-22.983
20555,-20.798,-23.112
20566,-22.22,-26.937
20578,-19.966,-27.199
20590,-20.259,-23.924
20602,-26.01,-22.658
20613,-21.911,-22.324
20625,-22.732,-23.451
20637,-22.845,-24.174
20648,-18.508,-23.254
20660,-18.683,-25.961
20672,-22.483,-25.129
20684,-24.007,-26.577
20695,-23.724,-27.307
20707,-22.739,-25.352
20719,-23.097,-21.589
20730,-22.162,-21.425
20742,-21.208,-25.183
20754,-22.058,-27.446
20766,-27.205,-23.443
20777,-25.138,-22.953
20789,-23.199,-29.933
20801,-24.399,-25.337
20813,-23.535,-23.11
20824,-22.529,-22.103
20836,-22.464,-22.842
20848,-22.714,-24.801
20859,-23.29,-24.748
20871,-22.558,-26.485
20883,-21.147,-26.111
20895,-22.119,-24.369
20906,-21.994,-23.104
20918,-23.524,-23.424
20930,-22.097,-25.48
20941,-24.385,-28.47
20953,-19.826,-26.643
20965,-19.712,-26.015
20977,-23.38,-27.907
20988,-22.98,-30.011
21000,-24.906,-27.305
21012,-27.48,-27.174
21023,-23.978,-28.843
21035,-23.515,-25.992
21047,-24.442,-25.325
21059,-23.65,-26.473
21070,-25.305,-22.554
21082,-24.475,-21.866
21094,-26.736,-25.931
21105,-29.76,-27.186
21117,-24.78,-28.625
21129,-23.53,-25.565
21141,-23.525,-24.723
21152,-21.808,-25.592
21164,-21.612,-23.416
21176,-21.786,-21.905
21188,-21.499,-24.058
21199,-22.612,-26.659
21211,-24.106,-26.851
21223,-30.461,-28.62
21234,-28.846,-25.146
21246,-24.524,-24.99
21258,-24.818,-26.619
21270,-21.993,-26.672
21281,-24.067,-26.49
21293,-22.523,-28.032
21305,-21.196,-26.85
21316,-22.335,-25.423
21328,-23.989,-24.976
21340,-25.164,-26.52
21352,-26.054,-27.336
21363,-23.203,-28.348
21375,-22.626,-25.701
21387,-23.691,-27.112
21398,-25.135,-26.341
21410,-24.412,-24.442
21422,-24.52,-27.199
21434,-24.011,-27.005
21445,-25.481,-27.065
21457,-21.895,-27.936
21469,-25.755,-26.917
21480,-23.32,-25.089
21492,-23.011,-25.743
21504,-26.484,-29.55
21516,-24.365,-28.775
21527,-25.638,-25.25
21539,-25.296,-25.204
21551,-23.752,-28.022
21563,-24.508,-29.4
21574,-24.141,-29.242
21586,-24.445,-25.215
21598,-23.338,-25.862
21609,-25.109,-24.983
21621,-24.26,-26.565
21633,-24.121,-29.721
21645,-23.907,-26.177
21656,-23.625,-23.02
21668,-23.997,-24.323
21680,-21.431,-28.303
21691,-23.502,-26.553
21703,-24.29,-27.405
21715,-21.763,-26.159
21727,-23.03,-25.939
21738,-23.686,-24.198
21750,-23.101,-25.188
21762,-22.604,-26.885
21773,-23.355,-24.651
21785,-26.827,-22.034
21797,-26.967,-23.504
21809,-24.221,-26.823
21820,-26.356,-26.823
21832,-27.325,-24.98
21844,-23.691,-26.159
21855,-25.33,-29.923
21867,-25.767,-28.51
21879,-23.354,-30.782
21891,-24.487,-27.811
21902,-23.681,-24.919
21914,-22.591,-25.733
21926,-26.826,-26.86
21938,-26.256,-26.019
21949,-24.538,-26.028
21961,-24.058,-23.481
21973,-25.359,-24.574
21984,-24.916,-26.556
21996,-21.843,-27.028
22008,-23.046,-28.478
22020,-23.259,-28.806
22031,-26.224,-27.995
22043,-24.333,-27.337
22055,-25.762,-28.192
22066,-24.458,-28.918
22078,-24.896,-30.539
22090,-23.937,-27.592
22102,-23.654,-27.171
22113,-22.576,-28.698
22125,-20.945,-29.425
22137,-22.546,-29.824
22148,-23.428,-26.77
22160,-23.23,-27.601
22172,-25.352,-27.94
22184,-25.264,-28.481
22195,-26.761,-28.232
22207,-25.523,-27.799
22219,-25.594,-26.773
22230,-27.967,-25.994
22242,-26.12,-27.361
22254,-24.909,-28.424
22266,-25.113,-24.239
22277,-25.943,-23.745
22289,-24.248,-24.289
22301,-24.883,-29.597
22313,-23.687,-28.525
22324,-26.102,-28.941
22336,-26.535,-28.599
22348,-22.538,-26.289
22359,-24.506,-26.417
22371,-24.925,-27.48
22383,-24.446,-27.437
22395,-26.018,-26.174
22406,-24.869,-28.357
22418,-25.662,-25.131
22430,-23.593,-24.912
22441,-23.208,-29.145
22453,-30.104,-26.883
22465,-23.887,-29.569
22477,-24.637,-26.544
22488,-24.943,-26.861
22500,-23.742,-29.733
22512,-26.01,-26.695
22523,-26.307,-24.486
22535,-25.687,-25.928
22547,-25.958,-30.515
22559,-25.79,-25.923
22570,-25.056,-26.072
22582,-25.767,-28.422
22594,-25.992,-27.45
22605,-24.661,-25.535
22617,-25.581,-25.541
22629,-29.52,-27.885
22641,-28.47,-30.778
22652,-27.996,-28.084
22664,-27.465,-27.917
22676,-24.996,-29.648
22688,-25.694,-33.147
22699,-24.873,-27.396
22711,-24.788,-26.834
22723,-24.588,-29.798
22734,-26.596,-26.839
22746,-24.307,-26.898
22758,-26.262,-25.659
22770,-29.053,-28.149
22781,-26.14,-31.613
22793,-25.401,-32.59
22805,-27.937,-31.455
22816,-31.877,-31.793
22828,-26.05,-33.171
22840,-24.373,-29.682
22852,-24.628,-28.154
22863,-26.801,-28.283
22875,-31,-25.33
22887,-27.574,-29.059
22898,-27.232,-28.187
22910,-26.105,-29.375
22922,-27.043,-30.065
22934,-27.492,-28.837
22945,-28.117,-27.986
22957,-27.833,-28.244
22969,-26.834,-29.17
22980,-26.532,-31.474
22992,-26.674,-25.3
23004,-29.788,-25.79
23016,-29.519,-27.091
23027,-28.984,-28.795
23039,-27.885,-28.743
23051,-26.984,-27.873
23063,-24.272,-27.837
23074,-25.361,-26.616
23086,-28.243,-27.395
23098,-26.795,-29.489
23109,-27.989,-30.338
23121,-30.785,-29.862
23133,-30.886,-28.63
23145,-26.09,-27.772
23156,-25.626,-29.272
23168,-26.932,-26.666
23180,-25.305,-26.21
23191,-24.466,-28.831
23203,-24.85,-29.875
23215,-26.245,-29.955
23227,-27.768,-29.517
23238,-29.82,-27.646
23250,-29.264,-27.455
23262,-28.456,-24.159
23273,-25.946,-23.507
23285,-26.413,-27.246
23297,-28.463,-28.663
23309,-31.05,-32.145
23320,-29.743,-29.495
23332,-27.198,-29.861
23344,-25.282,-28.613
23355,-27.205,-27.202
23367,-27.347,-28.941
23379,-27.598,-30.139
23391,-29.487,-29.629
23402,-28.929,-26.06
23414,-26.275,-24.937
23426,-26.281,-27.949
23438,-27.156,-30.234
23449,-30.819,-28.36
23461,-28.741,-28.874
23473,-25.115,-30.615
23484,-24.413,-30.227
23496,-26.88,-30.899
23508,-25.691,-26.393
23520,-23.991,-26.604
23531,-25.744,-29.574
23543,-27.712,-29.035
23555,-27.229,-27.104
23566,-28.372,-26.524
23578,-26.914,-26.524
23590,-26.523,-27.435
23602,-26.71,-27.4
23613,-26.642,-27.579
23625,-28.746,-27.396
23637,-30.194,-27.885
23648,-29.616,-27.76
23660,-27.522,-27.769
23672,-26.716,-29.817
23684,-26.233,-27.927
23695,-28.117,-26.648
23707,-29.117,-25.903
23719,-29.542,-25.46
23730,-30.326,-26.06
23742,-29.104,-27.735
23754,-26.761,-25.694
23766,-26.325,-25.956
23777,-27.333,-26.474
23789,-28.137,-28.147
23801,-28.147,-28.738
23813,-28.251,-31.376
23824,-28.45,-28.121
23836,-29.054,-28.852
23848,-29.388,-29.801
23859,-26.628,-30.512
23871,-27.738,-28.967
23883,-26.31,-29.873
23895,-26.035,-30.199
23906,-30.318,-28.493
23918,-26.794,-25.753
23930,-26.909,-28.313
23941,-31.874,-29.935
23953,-31.084,-27.317
23965,-28.333,-26.597
23977,-26.998,-26.066
23988,-25.932,-24.781
