FFT,Power Spectrum
Frequency[Hz],Level-L[dB],Level-R[dB]
11.719,-18.87,-22.15
23.438,1.0506,-2.5876
35.156,1.2987,-1.7894
46.875,6.1842,7.3889
58.594,6.5651,8.3296
70.313,3.6001,6.3471
82.031,5.3003,6.5011
93.75,7.6368,8.1328
105.47,7.4749,9.7523
117.19,5.5887,9.9595
128.91,12.649,12.411
140.63,14.932,12.91
152.34,9.2833,10.599
164.06,1.74,9.2769
175.78,5.5255,14.175
187.5,9.0041,14.371
199.22,9.8441,13.981
210.94,7.615,11.23
222.66,3.4325,12.091
234.38,7.2503,12.321
246.09,9.1098,13.461
257.81,10.939,16.136
269.53,9.9556,13.519
281.25,9.4983,13.131
292.97,10.294,15.462
304.69,8.3754,13.836
316.41,6.7695,9.8841
328.13,6.5865,13.603
339.84,8.0553,15.088
351.56,7.3265,14.753
363.28,6.9404,14.414
375,3.1615,14.225
386.72,5.37,16.465
398.44,5.4108,17.481
410.16,4.2643,16.654
421.88,6.555,16.075
433.59,6.5593,16.319
445.31,3.3355,14.889
457.03,2.2631,13.147
468.75,1.9877,12.783
480.47,1.6598,11.087
492.19,1.9351,10.673
503.91,0.05456,16.069
515.63,4.6502,16.2
527.34,4.1855,16.373
539.06,1.8489,15.433
550.78,3.0374,14.094
562.5,5.3522,16.588
574.22,5.3831,16.894
585.94,6.23,15.242
597.66,5.3412,13.553
609.38,5.2756,14.497
621.09,4.7313,15.679
632.81,2.3919,14.635
644.53,1.7041,13.062
656.25,4.8468,15.723
667.97,6.6848,17.631
679.69,3.9602,15.729
691.41,5.008,15.373
703.13,2.7377,16.165
714.84,2.7768,16.052
726.56,2.4181,13.732
738.28,3.3499,12.642
750,2.2866,15.365
761.72,4.7702,15.216
773.44,5.0935,16.176
785.16,3.3381,17.969
796.88,4.9841,16.224
808.59,4.5672,14.536
820.31,1.7151,14.163
832.03,5.0446,14.465
843.75,2.668,13.024
855.47,2.9905,13.858
867.19,5.3529,14.192
878.91,6.9488,14.373
890.63,5.0204,12.711
902.34,7.1832,14.804
914.06,5.7057,15.734
925.78,3.5284,15.387
937.5,5.3016,14.499
949.22,5.6438,13.68
960.94,5.7309,13.243
972.66,6.7421,15.941
984.38,5.604,15.885
996.09,3.952,16.01
1007.8,4.0319,12.726
1019.5,7.451,14.671
1031.3,6.609,16.7
1043,6.9496,16.076
1054.7,7.9253,15.788
1066.4,8.7372,15.23
1078.1,9.3152,18.812
1089.8,10.208,20.256
1101.6,6.2027,18.471
1113.3,5.4448,14.744
1125,4.6488,13.73
1136.7,8.2148,16.181
1148.4,6.7033,17.539
1160.2,4.6989,15.322
1171.9,5.7109,13.321
1183.6,5.5796,15.258
1195.3,4.2079,15.396
1207,6.6402,14.087
1218.8,6.502,13.267
1230.5,6.5791,15.675
1242.2,4.5295,16.143
1253.9,1.2582,13.596
1265.6,3.9783,15.242
1277.3,4.6421,13.381
1289.1,3.4564,14.95
1300.8,2.9736,14.231
1312.5,4.5982,12.392
1324.2,6.8068,17.462
1335.9,4.6925,18.333
1347.7,4.5503,16.2
1359.4,5.1164,11.526
1371.1,4.6345,16.968
1382.8,3.5585,17.106
1394.5,4.1623,15.694
1406.3,6.4795,15.499
1418,4.9509,14.668
1429.7,7.4378,16.403
1441.4,4.6466,16.095
1453.1,1.5666,14.624
1464.8,0.12017,13.856
1476.6,4.7203,11.698
1488.3,3.4978,12.411
1500,4.6264,13.571
1511.7,2.2059,15.523
1523.4,4.4398,15.839
1535.2,2.384,15.933
1546.9,2.029,16.676
1558.6,2.3863,11.869
1570.3,1.7905,13.57
1582,3.9222,15.067
1593.8,4.1023,14.846
1605.5,1.6899,13.829
1617.2,1.1739,14.723
1628.9,1.1854,13.304
1640.6,5.2228,10.249
1652.3,5.7188,11.783
1664.1,6.0989,15.002
1675.8,4.1291,14.533
1687.5,4.0671,15.644
1699.2,1.4488,16.595
1710.9,1.4602,13.883
1722.7,3.7745,15.883
1734.4,-0.49426,14.607
1746.1,3.896,12.634
1757.8,1.7203,13.143
1769.5,2.9012,11.356
1781.3,5.9284,7.8135
1793,3.6733,13.156
1804.7,4.6188,14.513
1816.4,5.0992,12.817
1828.1,2.8562,14.351
1839.8,2.4938,11.495
1851.6,4.2068,13.294
1863.3,4.6135,13.998
1875,4.0379,14.33
1886.7,1.7329,13.403
1898.4,2.5785,15.686
1910.2,3.1262,15.228
1921.9,1.0264,13.954
1933.6,-1.8087,13.754
1945.3,1.451,15.335
1957,3.3818,14.131
1968.8,1.4826,14.183
1980.5,0.29227,12.204
1992.2,0.45049,13.661
2003.9,0.0008156,15.268
2015.6,-1.1086,14.194
2027.3,-0.20272,15.494
2039.1,1.9794,12.201
2050.8,5.3765,14.311
2062.5,4.466,17.697
2074.2,1.7971,16.481
2085.9,-1.7095,12.559
2097.7,1.6959,12.82
2109.4,2.4888,13.033
2121.1,1.5707,12.793
2132.8,0.12578,11.948
2144.5,3.793,12.727
2156.3,3.4892,12.498
2168,-0.018587,11.637
2179.7,2.7713,14.456
2191.4,2.9792,13.469
2203.1,1.2282,12.333
2214.8,0.18626,11.2
2226.6,1.633,10.951
2238.3,0.95505,13.092
2250,2.0227,14.741
2261.7,2.2883,12.503
2273.4,1.7422,12.528
2285.2,1.8686,12.635
2296.9,2.8915,11.367
2308.6,1.4807,13.323
2320.3,1.5097,13.238
2332,1.0139,13.339
2343.8,4.3573,11.188
2355.5,2.1037,12.542
2367.2,0.22792,11.812
2378.9,0.16642,11.37
2390.6,2.1613,12.019
2402.3,3.3093,12.118
2414.1,3.1604,12.866
2425.8,0.17551,13.305
2437.5,2.6916,11.482
2449.2,2.0061,11.006
2460.9,1.3408,10.631
2472.7,1.0875,13.505
2484.4,0.5162,14.074
2496.1,-0.59019,12.828
2507.8,-1.3213,12.323
2519.5,-2.9032,14.604
2531.3,-0.91504,13.377
2543,1.3468,11.744
2554.7,1.8503,11.066
2566.4,1.4918,12.688
2578.1,0.41897,14.695
2589.8,-0.16932,14.462
2601.6,0.12578,13.904
2613.3,-1.5899,14.329
2625,-1.0977,15.238
2636.7,0.62898,13.92
2648.4,0.12724,10.781
2660.2,0.26041,12.871
2671.9,-0.060057,12.202
2683.6,-2.2861,11.238
2695.3,-3.9363,12.584
2707,-0.35615,11.541
2718.8,1.24,9.4982
2730.5,0.42437,8.6588
2742.2,-1.968,10.754
2753.9,-2.9006,12.122
2765.6,1.3918,12.747
2777.3,3.4723,11.073
2789.1,2.4579,13.448
2800.8,1.4254,11.98
2812.5,-2.4651,10.721
2824.2,0.44904,12.915
2835.9,0.26645,13.308
2847.7,2.6161,11.984
2859.4,1.6966,13.057
2871.1,-2.8502,13.435
2882.8,-2.9272,15.38
2894.5,0.0064999,14.118
2906.3,0.39114,15.625
2918,-1.0916,12.88
2929.7,-0.84026,9.0037
2941.4,-0.041783,9.6248
2953.1,1.7807,8.4905
2964.8,-0.86283,9.6969
2976.6,0.5597,11.165
2988.3,-1.8451,11.081
3000,-0.74612,9.9637
3011.7,0.42621,9.0145
3023.4,0.79294,9.71
3035.2,0.53027,9.723
3046.9,-1.9778,9.5409
3058.6,-0.48075,9.7684
3070.3,0.43634,9.1876
3082,-0.78774,11.373
3093.8,-2.145,11.618
3105.5,0.63381,11.705
3117.2,0.16587,11.482
3128.9,-0.5951,9.9018
3140.6,-0.8605,7.5484
3152.3,-3.334,11.788
3164.1,-2.3953,11.162
3175.8,1.5736,11.234
3187.5,1.7636,10.138
3199.2,1.6235,11.624
3210.9,-0.0054508,12.444
3222.7,-0.24308,11.224
3234.4,-0.31764,8.5705
3246.1,-2.5962,8.4358
3257.8,-0.70685,8.8867
3269.5,-3.3501,7.5311
3281.3,-2.6311,8.7226
3293,-2.2407,7.267
3304.7,-1.5485,9.0577
3316.4,-0.090978,11.282
3328.1,-2.4895,10.136
3339.8,-3.4104,8.5632
3351.6,-0.042022,7.6604
3363.3,-3.3629,7.7786
3375,-2.3993,9.0983
3386.7,-3.8177,10.442
3398.4,-1.8454,11.898
3410.2,-3.6688,10.541
3421.9,-2.4888,7.3625
3433.6,-1.1751,9.5922
3445.3,-0.78972,9.3064
3457,-2.7008,8.1046
3468.8,-5.1481,10.852
3480.5,-3.3937,11.559
3492.2,-1.6143,10.546
3503.9,-0.13543,11.229
3515.6,2.2936,9.3219
3527.3,0.94035,8.8898
3539.1,-2.5463,6.7286
3550.8,-4.6273,9.6556
3562.5,-3.582,11.034
3574.2,-1.7039,9.8224
3585.9,-0.44244,12.472
3597.7,-1.6246,11.106
3609.4,-3.9458,8.2659
3621.1,-3.2427,7.6005
3632.8,-0.058891,6.3078
3644.5,-1.03,6.2946
3656.3,0.30462,7.5951
3668,-0.93622,7.9744
3679.7,8.9635,9.7545
3691.4,10.069,9.3274
3703.1,3.166,9.929
3714.8,0.9209,9.0506
3726.6,-2.8631,6.4198
3738.3,-1.5436,6.3663
3750,1.8165,8.3583
3761.7,-0.1198,8.1323
3773.4,-3.0801,10.097
3785.2,-5.1768,10.491
3796.9,-2.1406,9.4968
3808.6,-0.22697,10.271
3820.3,-3.4508,9.0221
3832,-4.571,8.8005
3843.8,-3.9523,9.565
3855.5,-3.8172,8.7273
3867.2,-3.5626,8.3324
3878.9,-2.2061,11.738
3890.6,-2.0955,9.5152
3902.3,-0.78699,9.7025
3914.1,-2.2898,6.708
3925.8,-2.2466,7.5645
3937.5,-0.61579,9.0319
3949.2,-2.1592,8.9077
3960.9,-4.3924,8.6704
3972.7,-3.4868,7.9635
3984.4,-2.2286,9.4365
3996.1,-3.5166,11.572
4007.8,-2.6851,12.105
4019.5,-0.009077,11.618
4031.3,-1.6675,9.4364
4043,-4.2451,14.173
4054.7,-0.67364,11.672
4066.4,0.84149,10.572
4078.1,-0.46828,10.38
4089.8,-2.9161,8.5551
4101.6,-1.7127,8.6958
4113.3,-1.1246,8.7664
4125,-0.49638,8.8483
4136.7,-2.8031,8.4152
4148.4,-3.3997,9.1936
4160.2,-2.5693,12.203
4171.9,-2.166,10.688
4183.6,-2.5501,5.7737
4195.3,-1.5626,6.6149
4207,-2.4088,6.3159
4218.8,-4.2031,5.0861
4230.5,-5.1156,6.3427
4242.2,-3.9253,6.2276
4253.9,-2.0139,5.8378
4265.6,0.29435,7.4423
4277.3,1.1696,8.3546
4289.1,0.058074,5.6108
4300.8,-0.67358,8.067
4312.5,-0.6161,8.4767
4324.2,-2.2185,7.8869
4335.9,-3.0704,7.8819
4347.7,-2.4317,9.7008
4359.4,-6.6847,10.713
4371.1,-2.0933,9.8722
4382.8,-6.0525,9.3674
4394.5,-3.2438,9.6923
4406.3,-1.2415,7.8095
4418,-0.80414,7.0253
4429.7,-3.5828,6.7427
4441.4,-2.435,5.4755
4453.1,-3.524,8.9637
4464.8,-2.3222,10.399
4476.6,-1.6281,9.7413
4488.3,-1.0237,8.2148
4500,0.53545,6.8317
4511.7,0.0059825,6.9127
4523.4,-2.9606,7.7054
4535.2,-3.6111,8.3846
4546.9,-0.84009,3.9455
4558.6,-3.2421,4.0166
4570.3,-4.7962,5.1988
4582,-3.9527,7.5938
4593.8,-4.77,5.7394
4605.5,-1.181,7.9524
4617.2,1.0879,8.449
4628.9,-4.1364,7.3081
4640.6,-2.8827,8.5434
4652.3,-4.8648,5.9181
4664.1,-6.6582,4.2557
4675.8,-6.942,5.6944
4687.5,-4.0793,7.2936
4699.2,-1.5964,7.312
4710.9,-1.8163,4.5412
4722.7,-3.9923,6.909
4734.4,-6.5328,6.7071
4746.1,-5.6111,5.6453
4757.8,-1.1926,4.6341
4769.5,-2.9672,6.913
4781.3,-1.1098,7.5141
4793,-2.3923,6.4239
4804.7,-2.9786,4.0668
4816.4,-5.0405,4.6108
4828.1,-5.2961,3.284
4839.8,-4.7263,6.1762
4851.6,-6.0825,5.8478
4863.3,-4.0518,8.7987
4875,-3.4994,10.496
4886.7,-4.9269,9.7064
4898.4,-2.275,7.417
4910.2,-2.8431,9.0423
4921.9,-3.1968,6.9575
4933.6,-3.6677,6.5674
4945.3,-3.2605,8.8568
4957,-0.84216,11.395
4968.8,-1.3283,8.6072
4980.5,-5.7148,7.901
4992.2,-3.8517,5.5047
5003.9,-3.9001,6.4015
5015.6,-5.6193,3.3414
5027.3,-6.2478,6.9467
5039.1,-6.3316,6.7689
5050.8,-4.8704,6.6167
5062.5,-7.6292,6.0325
5074.2,-5.0315,6.6345
5085.9,-2.1329,5.4899
5097.7,-0.7252,6.7769
5109.4,-2.0548,7.6697
5121.1,-4.2113,7.2703
5132.8,-3.6017,3.1678
5144.5,-2.7591,5.7192
5156.3,-3.685,9.0852
5168,-3.9548,8.2174
5179.7,-5.0575,5.0597
5191.4,-9.5791,3.326
5203.1,-3.5962,4.4916
5214.8,-1.409,4.5203
5226.6,-6.0072,6.3153
5238.3,-4.9254,6.5527
5250,-5.9727,6.2479
5261.7,-5.2194,6.5751
5273.4,-3.1247,8.3491
5285.2,-2.0006,8.8348
5296.9,-2.9929,8.8539
5308.6,-3.5572,8.9658
5320.3,-2.9893,8.6607
5332,-3.7318,7.9407
5343.8,-3.4323,6.1883
5355.5,-4.2641,4.6258
5367.2,-5.2128,3.808
5378.9,-5.0253,2.4912
5390.6,-4.2753,2.4532
5402.3,-6.1137,5.4462
5414.1,-7.7146,6.9394
5425.8,-7.0894,6.4685
5437.5,-5.6447,4.7385
5449.2,-5.1961,4.2155
5460.9,-3.7644,2.4579
5472.7,-5.0824,4.3319
5484.4,-7.4193,6.1591
5496.1,-5.2849,6.9643
5507.8,-5.4916,6.1561
5519.5,-6.3806,4.92
5531.3,-7.2418,4.8197
5543,-3.6765,6.2555
5554.7,-3.7135,8.8694
5566.4,-3.4217,5.0955
5578.1,-3.2624,7.8678
5589.8,-0.9726,6.6825
5601.6,-1.3195,5.9267
5613.3,-4.0178,9.6868
5625,-8.2342,10.285
5636.7,-5.1173,10.889
5648.4,-4.0081,9.4016
5660.2,-4.946,6.5558
5671.9,-4.0283,7.3699
5683.6,-5.0069,5.1902
5695.3,-6.3329,5.0268
5707,-8.0781,6.8606
5718.8,-6.0453,7.628
5730.5,-5.3863,6.6522
5742.2,-3.3621,3.697
5753.9,-1.5036,3.2626
5765.6,-5.4272,4.5071
5777.3,-2.8748,6.3811
5789.1,-3.3848,6.5722
5800.8,-2.7696,4.8909
5812.5,-5.3845,4.0456
5824.2,-6.2617,6.3108
5835.9,-4.1462,7.196
5847.7,-2.4072,5.1001
5859.4,-2.5735,6.3908
5871.1,-4.6326,8.0594
5882.8,-3.8377,6.5032
5894.5,-5.1282,6.5255
5906.3,-7.7404,5.8124
5918,-4.3018,5.242
5929.7,-4.3056,7.3003
5941.4,-6.4789,2.3664
5953.1,-8.4897,3.8978
5964.8,-9.0008,3.2993
5976.6,-3.5452,4.1709
5988.3,-2.6136,3.7959
6000,-3.1074,3.2826
6011.7,-5.4228,3.5925
6023.4,-5.9015,3.7596
6035.2,-6.3241,4.6073
6046.9,-7.619,5.9065
6058.6,-5.0731,6.1596
6070.3,-4.1367,7
6082,-7.1462,5.8382
6093.8,-6.0474,4.3625
6105.5,-4.7765,4.3213
6117.2,-6.2468,3.3202
6128.9,-5.6542,3.1693
6140.6,-5.6666,3.7585
6152.3,-6.8909,4.2772
6164.1,-5.9359,4.8044
6175.8,-4.8235,5.6112
6187.5,-7.5199,3.322
6199.2,-9.8901,3.3034
6210.9,-7.1072,1.4172
6222.7,-4.5144,3.74
6234.4,-7.3916,4.4814
6246.1,-4.4177,3.4164
6257.8,-0.64707,1.91
6269.5,-2.1996,2.0319
6281.3,-8.1897,4.2834
6293,-5.9684,4.1341
6304.7,-4.7176,5.7313
6316.4,-4.3815,6.4168
6328.1,-2.9505,3.7126
6339.8,-1.7682,4.1515
6351.6,-2.3726,3.7099
6363.3,-4.2515,3.3752
6375,-7.6694,3.9935
6386.7,-4.3193,3.4834
6398.4,-5.0505,4.1568
6410.2,-4.519,3.1544
6421.9,-1.7519,3.643
6433.6,-4.091,3.4995
6445.3,-7.6864,4.9084
6457,-3.4936,3.7565
6468.8,-3.0636,2.0463
6480.5,-2.932,3.3669
6492.2,-5.4181,4.2333
6503.9,-5.0404,3.2826
6515.6,-6.1875,4.9339
6527.3,-9.1304,4.9679
6539.1,-6.0225,6.1715
6550.8,-6.4862,4.6453
6562.5,-7.0144,4.9932
6574.2,-6.5377,6.1314
6585.9,-6.108,5.3117
6597.7,-5.7133,4.4001
6609.4,-5.5412,6.2575
6621.1,-3.61,5.7734
6632.8,-3.1941,6.4787
6644.5,-6.4187,4.7835
6656.3,-5.4854,2.9669
6668,-7.2243,6.4264
6679.7,-9.3544,4.3537
6691.4,-7.812,2.5804
6703.1,-7.0081,4.0071
6714.8,-8.0541,5.944
6726.6,-5.8698,4.3378
6738.3,-7.3776,3.9508
6750,-9.6282,4.4735
6761.7,-9.7195,4.6194
6773.4,-9.9071,5.0176
6785.2,-8.9139,2.5798
6796.9,-6.6132,4.9347
6808.6,-5.8102,5.8232
6820.3,-6.7721,3.3527
6832,-7.3158,3.27
6843.8,-6.0218,5.1882
6855.5,-3.822,6.4048
6867.2,-4.3921,4.9712
6878.9,-7.2122,2.8066
6890.6,-7.6537,2.8353
6902.3,-6.6461,2.0369
6914.1,-4.1939,1.3713
6925.8,-3.5686,2.1321
6937.5,-5.0772,-0.30981
6949.2,-7.6739,1.6647
6960.9,-8.5476,6.0656
6972.7,-6.4397,3.5588
6984.4,-3.8386,3.3143
6996.1,-4.8603,2.9777
7007.8,-7.1579,4.7065
7019.5,-8.6465,4.9364
7031.3,-8.5651,4.8631
7043,-10.299,5.6054
7054.7,-10.558,4.4218
7066.4,-5.2132,2.5304
7078.1,-3.7247,4.3708
7089.8,-6.3349,1.1903
7101.6,-7.211,1.3455
7113.3,-5.3702,5.3144
7125,-4.3345,5.0009
7136.7,-6.5312,5.4676
7148.4,-7.7663,7.1497
7160.2,-6.3691,4.9343
7171.9,-6.4911,4.953
7183.6,-9.3203,4.6665
7195.3,-6.9974,5.8097
7207,-5.8632,4.6239
7218.8,-5.1513,5.0928
7230.5,-6.2879,5.0257
7242.2,-6.9634,3.2755
7253.9,-8.1702,4.4838
7265.6,-10.057,3.003
7277.3,-9.7062,2.5281
7289.1,-7.7415,0.90655
7300.8,-9.2453,1.7338
7312.5,-8.2531,2.6102
7324.2,-11.242,2.3881
7335.9,-7.8787,5.4544
7347.7,-5.5485,6.2068
7359.4,-7.3431,5.3127
7371.1,-5.2605,2.9492
7382.8,-6.9101,5.9045
7394.5,-10.352,6.1279
7406.3,-8.7978,3.1491
7418,-10.104,4.147
7429.7,-9.08,3.7264
7441.4,-9.7883,2.8927
7453.1,-11.256,3.5485
7464.8,-7.757,4.4499
7476.6,-9.0655,3.698
7488.3,-6.14,0.62316
7500,-6.042,3.3858
7511.7,-7.9188,1.7665
7523.4,-7.2908,2.7177
7535.2,-3.7993,1.8488
7546.9,-3.7245,3.9416
7558.6,-7.5488,3.7078
7570.3,-9.0422,2.5635
7582,-7.0191,1.2246
7593.8,-8.2401,2.9553
7605.5,-8.2299,4.5168
7617.2,-4.4881,4.6932
7628.9,-4.4068,5.5167
7640.6,-7.7899,2.7814
7652.3,-8.9644,4.3947
7664.1,-9.7181,5.1916
7675.8,-10.545,7.0594
7687.5,-6.344,4.5428
7699.2,-6.073,1.8248
7710.9,-9.1928,4.8139
7722.7,-8.6893,5.2716
7734.4,-6.2109,5.3374
7746.1,-6.6746,2.9025
7757.8,-9.6211,-0.055202
7769.5,-9.319,1.2963
7781.3,-8.4673,4.0602
7793,-9.4635,4.5186
7804.7,-8.013,3.6973
7816.4,-7.7476,5.0468
7828.1,-7.2206,7.3626
7839.8,-7.7729,7.6318
7851.6,-10.463,4.8883
7863.3,-10.345,3.438
7875,-10.445,2.9691
7886.7,-7.8053,0.32916
7898.4,-6.3366,-1.9255
7910.2,-7.6998,0.36998
7921.9,-11.479,3.4299
7933.6,-10.299,5.6517
7945.3,-5.3898,3.5625
7957,-7.6885,1.2358
7968.8,-9.3983,-0.88288
7980.5,-8.6555,1.3526
7992.2,-8.7428,2.8601
8003.9,-9.2259,4.2034
8015.6,-9.4646,2.3183
8027.3,-10.163,2.7042
8039.1,-9.6168,3.6726
8050.8,-9.3052,6.2445
8062.5,-7.747,6.4233
8074.2,-7.9912,4.0503
8085.9,-12.175,3.3653
8097.7,-7.3299,1.9661
8109.4,-5.9196,2.4247
8121.1,-7.2376,2.1358
8132.8,-7.846,3.2059
8144.5,-8.9732,0.96124
8156.3,-7.7531,1.2761
8168,-9.4003,2.0723
8179.7,-10.396,3.5162
8191.4,-9.5668,2.7756
8203.1,-11.584,-0.30523
8214.8,-11.803,2.8538
8226.6,-7.8818,0.5455
8238.3,-8.8555,1.2606
8250,-10.156,2.5604
8261.7,-13.375,2.055
8273.4,-11.619,1.7475
8285.2,-8.6786,3.2951
8296.9,-10.742,4.5799
8308.6,-8.0174,4.4917
8320.3,-8.8917,3.3124
8332,-11.319,4.2624
8343.8,-10.405,6.1676
8355.5,-7.1396,5.015
8367.2,-6.6621,3.4678
8378.9,-7.2722,2.3937
8390.6,-10.043,2.5546
8402.3,-8.4898,3.7624
8414.1,-7.2534,5.1994
8425.8,-9.9001,1.8357
8437.5,-9.5134,2.3263
8449.2,-9.9619,0.93168
8460.9,-10.96,2.4895
8472.7,-9.6772,2.4024
8484.4,-8.0232,0.77427
8496.1,-7.3475,-1.0865
8507.8,-9.0185,2.8471
8519.5,-9.4085,1.253
8531.3,-11.678,3.6716
8543,-9.4459,0.74239
8554.7,-9.1043,1.6791
8566.4,-9.3446,3.0201
8578.1,-10.064,3.1652
8589.8,-9.9248,0.17205
8601.6,-9.694,1.2509
8613.3,-8.0732,-1.1928
8625,-8.8686,1.253
8636.7,-10.226,4.214
8648.4,-10.35,4.2941
8660.2,-10.093,4.1422
8671.9,-9.8986,2.0024
8683.6,-7.0632,-0.44776
8695.3,-9.224,0.5795
8707,-9.2944,-0.47564
8718.8,-7.1187,-1.7644
8730.5,-7.8376,-2.167
8742.2,-7.8473,-0.68488
8753.9,-9.6589,2.1032
8765.6,-8.4776,0.18202
8777.3,-7.6189,0.97802
8789.1,-8.1955,2.1421
8800.8,-10.694,1.6373
8812.5,-10.679,2.342
8824.2,-10.74,3.6627
8835.9,-8.7738,3.3582
8847.7,-8.7413,1.7304
8859.4,-9.1487,-0.74324
8871.1,-7.029,-1.1635
8882.8,-7.7993,0.59773
8894.5,-11.022,-0.048002
8906.3,-10.038,3.6004
8918,-11.301,1.5666
8929.7,-9.5958,3.0589
8941.4,-10.959,3.1492
8953.1,-12.332,1.582
8964.8,-14.646,-1.2843
8976.6,-12.182,-1.7019
8988.3,-11.035,-3.4235
9000,-9.5613,-1.1115
9011.7,-8.1882,-0.29239
9023.4,-8.6898,-1.0695
9035.2,-9.3418,0.24341
9046.9,-13.889,1.6572
9058.6,-12.345,-0.93288
9070.3,-14.186,-1.5601
9082,-12.804,2.4453
9093.8,-9.8521,2.7286
9105.5,-10.29,1.0881
9117.2,-11.312,-0.55155
9128.9,-12.024,1.8938
9140.6,-13.184,3.0283
9152.3,-13.961,2.4723
9164.1,-11.124,2.2823
9175.8,-11.726,0.76037
9187.5,-8.5951,1.7168
9199.2,-7.9891,1.0864
9210.9,-6.926,0.69052
9222.7,-6.4987,1.101
9234.4,-8.6142,0.31549
9246.1,-12.016,0.70678
9257.8,-7.6704,3.0224
9269.5,-7.3714,1.8076
9281.3,-6.1531,-0.41485
9293,-7.6341,-1.2513
9304.7,-10.393,0.41645
9316.4,-11.241,1.6688
9328.1,-13.049,0.36117
9339.8,-12.527,0.68861
9351.6,-11.822,0.02633
9363.3,-13.392,1.4909
9375,-15.324,0.12743
9386.7,-12.998,-1.8632
9398.4,-9.6412,-2.3151
9410.2,-10.748,-0.98693
9421.9,-13.89,-1.0164
9433.6,-12.312,-0.4825
9445.3,-12.528,1.0353
9457,-10.68,1.7932
9468.8,-10.168,1.3423
9480.5,-10.674,-0.46082
9492.2,-12.131,-0.60723
9503.9,-10.761,-1.217
9515.6,-9.157,-1.3497
9527.3,-8.5793,-1.6248
9539.1,-10.102,-2.8004
9550.8,-12.118,-1.1698
9562.5,-12.101,0.17742
9574.2,-12.865,0.46701
9585.9,-14.635,-0.36584
9597.7,-11.358,-0.31837
9609.4,-11.475,0.36894
9621.1,-13.167,2.0236
9632.8,-11.631,0.40432
9644.5,-10.365,-2.4373
9656.3,-13.174,0.13313
9668,-12.689,1.7225
9679.7,-10.408,0.31206
9691.4,-10.719,0.13175
9703.1,-12.615,1.1998
9714.8,-12.189,1.4605
9726.6,-11.862,1.2028
9738.3,-10.549,0.059373
9750,-9.3498,0.3795
9761.7,-10.635,-1.8384
9773.4,-11.677,-3.0296
9785.2,-12.353,-1.9092
9796.9,-9.7115,-2.7759
9808.6,-9.4656,0.88967
9820.3,-11.363,1.3767
9832,-10.992,1.1442
9843.8,-11.683,1.5772
9855.5,-8.9905,-0.15355
9867.2,-9.806,-1.6768
9878.9,-12.526,0.31441
9890.6,-11.095,0.95374
9902.3,-13.506,2.2243
9914.1,-11.37,0.38169
9925.8,-10.623,-1.3739
9937.5,-10.191,-1.1838
9949.2,-8.5572,-0.53755
9960.9,-10.221,-0.55488
9972.7,-13.636,-2.558
9984.4,-14.458,-3.6068
9996.1,-15.028,-3.6803
10008,-13.185,-1.3906
10020,-11.577,-1.1354
10031,-11.398,-3.8938
10043,-13.583,-1.0854
10055,-14.059,-0.19759
10066,-14.382,-2.5683
10078,-14.154,-2.7215
10090,-13.157,-2.6429
10102,-13.589,-0.70945
10113,-16.108,-3.2146
10125,-14.24,-0.051216
10137,-13.753,-1.8426
10148,-12.247,-1.2661
10160,-10.067,0.25686
10172,-11.987,0.51467
10184,-13.849,2.7197
10195,-12.029,2.8472
10207,-12.904,1.8066
10219,-13.791,-0.41366
10230,-9.5959,-2.6206
10242,-12.38,-0.5596
10254,-12.452,-1.4845
10266,-11.37,-0.95576
10277,-13.428,-0.50739
10289,-12.859,-0.37055
10301,-11.942,-1.1672
10313,-11.709,-2.3317
10324,-11.909,-0.12508
10336,-12.013,-1.974
10348,-11.832,-3.0119
10359,-11.487,-0.76425
10371,-11.89,1.0398
10383,-13.409,2.6378
10395,-10.26,0.32705
10406,-8.0953,3.34
10418,-10.529,1.4025
10430,-12.382,2.9023
10441,-10.567,3.118
10453,-10.085,1.5628
10465,-14.148,0.27627
10477,-11.103,0.019013
10488,-12.51,1.0366
10500,-13.761,-0.30778
10512,-12.322,-3.4455
10523,-10.804,0.97971
10535,-9.9754,1.196
10547,-9.0724,1.4645
10559,-11.515,0.54398
10570,-13.12,-1.2757
10582,-12.424,-2.1163
10594,-12.024,-2.2674
10605,-10.947,-0.66952
10617,-9.6693,-0.41489
10629,-12.202,-0.94751
10641,-10.464,-0.70875
10652,-11.194,-0.55433
10664,-12.116,2.7177
10676,-13.752,-0.066899
10688,-14.289,-2.8227
10699,-13.55,-3.2444
10711,-13.461,-2.6989
10723,-12.079,-1.9604
10734,-12.092,-1.7349
10746,-15.577,-1.5463
10758,-13.959,-2.017
10770,-12.638,-3.2422
10781,-14.892,-2.3154
10793,-14.079,-1.1259
10805,-13.971,-6.2363
10816,-15.44,-0.53463
10828,-13.715,1.095
10840,-11.702,-0.6214
10852,-9.6131,-1.9082
10863,-11.058,-0.55339
10875,-10.587,-1.9342
10887,-11.674,-1.1398
10898,-15.082,0.89134
10910,-13.218,0.18283
10922,-12.396,-1.3078
10934,-15.677,-2.3192
10945,-13.197,-4.3111
10957,-11.345,0.46146
10969,-11.259,-1.5092
10980,-12.689,-3.1711
10992,-14.097,-3.4509
11004,-11.325,-0.043652
11016,-13.59,0.039664
11027,-12.59,-3.3576
11039,-10.986,-1.9178
11051,-10.061,-2.2539
11063,-11.94,-4.0539
11074,-10.625,-3.6738
11086,-11.354,-5.6782
11098,-14.296,-2.6695
11109,-13.554,-2.6885
11121,-14.867,-0.19665
11133,-9.8388,0.54565
11145,-11.747,-0.11146
11156,-13.401,-0.56021
11168,-12.258,0.61051
11180,-13.101,1.8826
11191,-12.372,2.2491
11203,-12.642,-0.15062
11215,-13.822,-3.9107
11227,-11.135,-2.3981
11238,-12.249,-2.8387
11250,-12.531,-3.4578
11262,-10.35,-2.3866
11273,-12.476,-0.35507
11285,-13.732,1.9125
11297,-10.937,0.13955
11309,-9.2232,-3.3148
11320,-11.286,-4.3964
11332,-11.857,-1.1249
11344,-12.275,-2.5003
11355,-10.631,-3.3673
11367,-12.027,-3.9879
11379,-11.449,-3.8551
11391,-7.9179,-2.4458
11402,-8.6478,-2.0526
11414,-15.239,-2.7046
11426,-13.363,-1.0693
11438,-15.027,-1.6162
11449,-15.044,-4.0538
11461,-16.107,-1.9785
11473,-14.177,-2.9103
11484,-10.549,-2.2601
11496,-9.4151,-4.3665
11508,-13.228,-5.7208
11520,-17.522,-3.2812
11531,-11.406,-1.8419
11543,-10,-1.8935
11555,-12.834,-1.7388
11566,-9.5967,-3.5804
11578,-10.367,-2.2801
11590,-11.076,-2.7202
11602,-14.261,-1.1817
11613,-13.134,-5.9003
11625,-11.1,-4.5153
11637,-13.398,-2.4015
11648,-13.919,-3.0952
11660,-14.548,-1.4406
11672,-14.842,0.40296
11684,-11.604,-0.62354
11695,-8.3155,-3.6743
11707,-8.699,-2.8628
11719,-10.943,-1.7296
11730,-7.7164,-2.7909
11742,-6.8269,-4.9061
11754,-7.7662,-4.4233
11766,-11.608,-2.2691
11777,-16,-2.6859
11789,-15.776,-2.7922
11801,-16.545,-1.4622
11813,-13.761,-2.6216
11824,-13.137,-1.8029
11836,-12.617,-1.9079
11848,-13.17,-4.616
11859,-13.641,-1.9768
11871,-12.987,-3.1849
11883,-14.252,-3.1898
11895,-15.537,-1.3375
11906,-14.201,-3.3116
11918,-14.764,-2.032
11930,-11.096,-3.0813
11941,-9.7051,-4.2309
11953,-11.454,-3.0175
11965,-12.045,-0.42676
11977,-12.326,0.17349
11988,-13.223,-0.26887
12000,-12.497,-1.7062
12012,-12.215,-2.336
12023,-11.079,-0.40913
12035,-8.6039,-1.554
12047,-11.134,-2.9315
12059,-13.962,-1.9372
12070,-13.056,-4.1907
12082,-11.99,-5.4531
12094,-14.528,-3.0007
12105,-13.904,-1.4371
12117,-12.562,-2.1866
12129,-11.845,-4.8066
12141,-13.214,0.26215
12152,-12.226,-1.5602
12164,-10.323,-1.3022
12176,-10.73,-0.40085
12188,-13.236,-1.3793
12199,-12.293,-2.1216
12211,-13.191,-4.4178
12223,-17.31,-2.4252
12234,-18.158,-0.82929
12246,-18.261,-0.29357
12258,-17.392,-1.2237
12270,-13.998,-0.90844
12281,-10.279,-1.6402
12293,-12.418,-2.514
12305,-12.507,-1.9022
12316,-14.905,-1.7081
12328,-14.575,-1.3112
12340,-13.949,-1.8163
12352,-14.146,-3.5035
12363,-13.446,-3.3566
12375,-13.531,-0.78407
12387,-14.25,-1.913
12398,-12.757,-3.1193
12410,-9.8498,-2.312
12422,-9.3228,-2.5454
12434,-10.059,-2.9377
12445,-12.521,-2.2707
12457,-13.621,-2.284
12469,-14.642,-3.7034
12480,-14.429,-7.0851
12492,-12.23,-5.754
12504,-9.8931,-3.7082
12516,-11.747,-3.8306
12527,-15.637,-2.6711
12539,-12.411,-3.1628
12551,-13.332,-0.80775
12563,-12.917,-0.081626
12574,-12.695,-4.8913
12586,-13.347,-5.735
12598,-14.615,-2.488
12609,-11.727,-1.0646
12621,-11.882,-0.56257
12633,-14.574,-3.0301
12645,-13.616,-5.3647
12656,-11.829,-7.1917
12668,-12.608,-4.8847
12680,-14.112,-1.6375
12691,-14.737,-2.265
12703,-13.715,-1.385
12715,-13.198,-1.8341
12727,-12.932,-3.2752
12738,-15.162,-0.47237
12750,-19.142,-0.41846
12762,-16.248,-2.7477
12773,-13.951,-2.7558
12785,-13.583,-1.679
12797,-13.525,-0.8365
12809,-12.091,-2.6886
12820,-13.65,-4.051
12832,-16.663,-2.7521
12844,-13.977,-1.7209
12855,-13.846,-2.928
12867,-16.687,-2.869
12879,-17.417,-0.93873
12891,-14.431,-1.3044
12902,-16.591,-4.5986
12914,-13.534,-2.246
12926,-11.346,0.55527
12938,-12.208,-1.3416
12949,-14.535,-2.0049
12961,-13.123,-1.3571
12973,-14.983,-2.612
12984,-14.034,-5.3808
12996,-15.334,-1.4779
13008,-14.36,-2.7253
13020,-12.069,-5.0945
13031,-11.627,-3.6669
13043,-12.181,-3.4342
13055,-13.008,-2.9671
13066,-11.504,-3.2332
13078,-13.526,-2.929
13090,-14.094,-2.7726
13102,-12.449,-0.9317
13113,-11.894,-2.3997
13125,-14.255,-4.9315
13137,-17.895,-1.6114
13148,-16.237,0.31249
13160,-14.48,-1.043
13172,-11.877,-1.6394
13184,-12.277,-4.3606
13195,-13.139,-6.7053
13207,-12.347,-2.3265
13219,-12.74,-1.1416
13230,-13.187,-3.0072
13242,-13.78,-4.3219
13254,-14.117,-0.95071
13266,-14.674,-1.4667
13277,-14.926,-3.9922
13289,-13.727,-3.1357
13301,-14.112,-4.0834
13313,-16.567,-3.6186
13324,-13.6,-2.3036
13336,-16.276,-1.966
13348,-14.797,-3.0949
13359,-14.663,-4.5335
13371,-15.082,-4.4994
13383,-15.051,-6.8935
13395,-12.601,-5.9217
13406,-10.757,-6.1979
13418,-13.585,-3.0971
13430,-14.909,-5.5276
13441,-14.747,-4.4721
13453,-14.932,-7.4244
13465,-14.497,-5.4505
13477,-16.34,-5.6033
13488,-18.907,-3.4497
13500,-16.375,-2.8171
13512,-15.905,-2.1119
13523,-16.939,-3.6345
13535,-13.576,-3.599
13547,-14.409,-3.2713
13559,-12.006,-4.4492
13570,-13.11,-1.4827
13582,-12.311,-1.1503
13594,-12.483,-2.9543
13605,-17.632,-3.858
13617,-15.577,-5.0632
13629,-13.444,-6.2203
13641,-12.622,-8.342
13652,-12.924,-8.1484
13664,-15.079,-5.5886
13676,-13.258,-4.3463
13688,-13.769,-6.4673
13699,-15.057,-5.9749
13711,-12.864,-6.7199
13723,-12.555,-3.5509
13734,-14.447,-4.7634
13746,-18.75,-1.5893
13758,-16.092,-3.7464
13770,-13.808,-2.8062
13781,-13.535,-3.2737
13793,-16.451,-3.5388
13805,-17.258,-3.6238
13816,-16.53,-5.6708
13828,-20.175,-6.5096
13840,-17.71,-6.8319
13852,-14.839,-5.4145
13863,-14.433,-4.9275
13875,-14.638,-3.5958
13887,-14.323,-3.5811
13898,-14.786,-4.728
13910,-16.147,-5.7607
13922,-15.675,-8.0902
13934,-17.627,-6.0364
13945,-16.342,-6.3837
13957,-14.618,-7.4962
13969,-16.701,-7.2827
13980,-18.061,-5.3762
13992,-16.741,-6.2107
14004,-15.863,-8.275
14016,-13.425,-5.6977
14027,-14.242,-3.7596
14039,-14.056,-4.9296
14051,-15.365,-7.0367
14063,-15.126,-5.6297
14074,-15.338,-4.3224
14086,-16.55,-6.7696
14098,-15.987,-7.7665
14109,-13.44,-7.6929
14121,-14.885,-5.3594
14133,-15.157,-3.1516
14145,-14.922,-3.4184
14156,-15.004,-2.8834
14168,-13.57,-3.0994
14180,-14.633,-5.9095
14191,-15.532,-6.561
14203,-16.333,-4.9315
14215,-15.886,-5.9175
14227,-15.411,-5.8612
14238,-18.294,-5.2578
14250,-17.066,-4.4631
14262,-15.184,-3.4869
14273,-16.234,-3.5874
14285,-17.884,-5.2505
14297,-17.046,-6.2761
14309,-15.378,-5.6454
14320,-15.952,-4.7347
14332,-17.359,-3.8299
14344,-19.794,-3.9821
14355,-15.108,-4.0874
14367,-15.159,-4.3742
14379,-17.832,-3.3812
14391,-16.801,-2.6912
14402,-16.665,-2.5434
14414,-16.694,-2.849
14426,-14.063,-2.814
14438,-15.06,-5.4981
14449,-17.02,-4.9313
14461,-14.547,-5.1282
14473,-14.371,-4.6124
14484,-12.518,-3.6721
14496,-13.205,-3.4245
14508,-15.647,-5.2142
14520,-13.521,-5.6349
14531,-15.881,-5.2872
14543,-17.514,-7.2014
14555,-16.913,-6.9124
14566,-18.194,-7.0624
14578,-19.657,-8.3149
14590,-18.342,-6.6522
14602,-14.723,-5.3383
14613,-16.464,-7.7658
14625,-16.75,-7.6298
14637,-14.304,-6.1246
14648,-15.25,-5.1677
14660,-15.075,-4.7647
14672,-15.308,-6.0057
14684,-15.485,-6.1971
14695,-14.002,-7.4722
14707,-16.041,-4.3781
14719,-20.316,-2.7922
14730,-16.558,-3.5928
14742,-17.772,-4.6424
14754,-17.247,-5.6176
14766,-13.805,-1.8663
14777,-13.245,-2.0751
14789,-14.081,-3.0964
14801,-14.876,-4.0791
14813,-15.228,-6.6122
14824,-14.261,-5.2859
14836,-15.422,-3.5149
14848,-17.712,-3.9586
14859,-17.806,-5.4668
14871,-19.321,-6.1921
14883,-18.662,-4.6436
14895,-18.087,-6.6448
14906,-20.371,-4.5517
14918,-21.233,-4.9508
14930,-18.697,-5.4905
14941,-15.855,-8.1372
14953,-14.402,-6.6285
14965,-16.083,-5.6944
14977,-17.856,-3.8987
14988,-16.903,-5.04
15000,-17.715,-5.8481
15012,-18.29,-7.5467
15023,-19.508,-6.2099
15035,-16.657,-4.29
15047,-14.208,-2.0939
15059,-16.341,-3.2761
15070,-18.069,-6.0001
15082,-14.942,-5.9699
15094,-14.18,-5.5029
15105,-14.77,-6.7782
15117,-16.115,-8.8005
15129,-16.646,-4.5262
15141,-18.081,-3.2693
15152,-20.147,-6.3213
15164,-18.942,-6.2891
15176,-17.174,-5.9519
15188,-19.827,-6.0862
15199,-16.664,-7.9428
15211,-17.66,-6.6394
15223,-16.921,-6.0029
15234,-16.368,-7.884
15246,-17.051,-7.7193
15258,-14.894,-6.3142
15270,-16.851,-4.3152
15281,-19.174,-6.0266
15293,-18.272,-9.928
15305,-19.522,-7.1274
15316,-19.54,-5.783
15328,-16.842,-4.9617
15340,-15.611,-6.0244
15352,-19.675,-7.4523
15363,-23.252,-6.8905
15375,-22.644,-7.5241
15387,-17.769,-9.1804
15398,-18.713,-8.5099
15410,-17.475,-5.6494
15422,-17.89,-5.5746
15434,-15.864,-6.2431
15445,-17.375,-5.7231
15457,-18.679,-7.2522
15469,-19.965,-7.6674
15480,-21.622,-5.4095
15492,-21.235,-5.7931
15504,-18.604,-5.5353
15516,-19.142,-5.506
15527,-19.506,-6.5006
15539,-18.372,-8.4723
15551,-20.465,-6.2433
15563,-15.464,-5.9561
15574,-14.223,-5.5719
15586,-17.533,-4.9716
15598,-19.576,-7.3693
15609,-17.718,-8.037
15621,-15.32,-6.811
15633,-17.107,-6.2029
15645,-17.602,-8.7815
15656,-18.331,-6.454
15668,-20.395,-5.6222
15680,-22.174,-7.1708
15691,-20.289,-8.1261
15703,-21.81,-6.9545
15715,-22.5,-5.7163
15727,-22.45,-5.0424
15738,-21.552,-6.2702
15750,-19.327,-6.6857
15762,-17.925,-8.883
15773,-19.701,-5.278
15785,-18.791,-5.1796
15797,-20.237,-6.7512
15809,-20.131,-7.6235
15820,-18.722,-8.944
15832,-20.885,-6.6092
15844,-21.005,-4.8982
15855,-21.061,-6.143
15867,-17.87,-7.6212
15879,-18.249,-4.4364
15891,-18.705,-3.0399
15902,-19.421,-6.0953
15914,-21.139,-7.2173
15926,-20.163,-8.9296
15938,-18.509,-9.0779
15949,-19.326,-7.7204
15961,-18.648,-7.4595
15973,-16.13,-7.2123
15984,-16.525,-4.0201
15996,-16.698,-5.7703
16008,-19.745,-6.3119
16020,-17.152,-3.6988
16031,-19.256,-3.4757
16043,-20.4,-7.9119
16055,-19.363,-6.6661
16066,-19.876,-7.136
16078,-19.72,-6.7172
16090,-19.901,-7.0218
16102,-21.198,-9.6816
16113,-20.951,-8.9554
16125,-21.204,-7.2218
16137,-18.464,-8.1187
16148,-21.006,-6.6312
16160,-18.185,-5.8056
16172,-17.337,-5.3674
16184,-22.44,-5.4798
16195,-19.424,-4.867
16207,-19.436,-5.0707
16219,-20.934,-7.4172
16230,-20.717,-7.9318
16242,-18.043,-8.0308
16254,-17.306,-6.2297
16266,-19.282,-8.615
16277,-21.409,-10.652
16289,-22.5,-8.9292
16301,-19.944,-6.5866
16313,-18.746,-5.4087
16324,-22.691,-4.7785
16336,-22.94,-6.0746
16348,-18.582,-7.8748
16359,-17.781,-8.6653
16371,-19.841,-7.1934
16383,-18.858,-4.9114
16395,-17.587,-7.177
16406,-20.907,-8.867
16418,-20.412,-7.1344
16430,-17.809,-6.3929
16441,-16.985,-6.238
16453,-17.808,-5.334
16465,-19.282,-6.9758
16477,-19.757,-7.1171
16488,-18.245,-6.7795
16500,-17.176,-7.5597
16512,-17.967,-8.7741
16523,-18.756,-7.6025
16535,-20.496,-8.0668
16547,-21.119,-6.4597
16559,-23.173,-6.3495
16570,-20.096,-4.573
16582,-17.515,-3.8477
16594,-16.805,-6.3338
16605,-20.058,-7.7984
16617,-23.425,-5.344
16629,-22.639,-4.7817
16641,-20.907,-8.3079
16652,-20.179,-4.6281
16664,-20.619,-5.3723
16676,-20.513,-7.1734
16688,-23.167,-9.2556
16699,-21.851,-7.2069
16711,-22.117,-5.9905
16723,-23.507,-7.2716
16734,-19.916,-5.1548
16746,-18.689,-3.9098
16758,-20.177,-7.2324
16770,-22.712,-8.263
16781,-19.598,-9.5655
16793,-16.459,-7.413
16805,-18.178,-9.3977
16816,-19.134,-11.002
16828,-19.86,-9.2055
16840,-19.778,-7.3614
16852,-19.535,-10.845
16863,-24.913,-9.0352
16875,-21.845,-6.4903
16887,-20.915,-7.8508
16898,-21.659,-10.871
16910,-25.016,-9.6083
16922,-25.146,-7.899
16934,-21.164,-7.9389
16945,-21.63,-6.4959
16957,-18.966,-4.7741
16969,-21.184,-7.5533
16980,-24.187,-9.0413
16992,-24.709,-8.5782
17004,-23.313,-9.1877
17016,-20.563,-7.3434
17027,-20.198,-4.9741
17039,-20.902,-4.6841
17051,-20.789,-6.0198
17063,-23.488,-8.1629
17074,-22.665,-7.1234
17086,-19.689,-6.0017
17098,-22.854,-7.7879
17109,-20.765,-8.9485
17121,-22.299,-10.268
17133,-20.148,-5.9313
17145,-18.827,-7.146
17156,-18.544,-10.376
17168,-20.058,-7.3513
17180,-18.951,-10.456
17191,-20.987,-4.6803
17203,-22.643,-3.4918
17215,-25.189,-6.5643
17227,-22.75,-6.157
17238,-21.902,-6.6251
17250,-22.099,-8.8222
17262,-21.8,-8.3294
17273,-22.141,-7.6919
17285,-22.733,-6.729
17297,-21.685,-8.8807
17309,-19.839,-7.8703
17320,-20.912,-8.7592
17332,-20.769,-9.4137
17344,-21.633,-9.2214
17355,-21.231,-10.098
17367,-23.527,-8.8634
17379,-21.475,-12.239
17391,-20.935,-8.1575
17402,-21.133,-6.5622
17414,-23.559,-8.5142
17426,-22.433,-8.1154
17438,-24.138,-6.988
17449,-23.617,-6.1199
17461,-22.757,-7.7982
17473,-20.392,-9.6653
17484,-20.978,-8.1443
17496,-22.802,-9.5729
17508,-24.583,-10.149
17520,-24.06,-10.706
17531,-22.263,-10.125
17543,-24.992,-9.2126
17555,-22.381,-10.41
17566,-20.582,-9.1863
17578,-20.69,-6.93
17590,-21.149,-7.5313
17602,-23.835,-8.2831
17613,-22.268,-7.4279
17625,-22.155,-5.5733
17637,-22.391,-5.5495
17648,-22.975,-6.0082
17660,-21.903,-7.3221
17672,-20.736,-7.8633
17684,-20.811,-7.8918
17695,-22.727,-11.21
17707,-23.722,-7.8248
17719,-24.341,-6.6708
17730,-24.695,-7.8846
17742,-24.247,-11.772
17754,-21.284,-11.892
17766,-21.319,-8.7769
17777,-21.468,-7.8781
17789,-21.766,-8.5554
17801,-21.624,-8.6128
17813,-21.85,-8.3612
17824,-23.91,-5.9304
17836,-23.77,-7.0989
17848,-23.926,-7.4888
17859,-24.126,-11.051
17871,-24.754,-12.123
17883,-20.895,-6.9843
17895,-19.875,-9.2017
17906,-21,-7.6989
17918,-22.028,-6.0752
17930,-24.716,-5.742
17941,-22.661,-7.2935
17953,-23.91,-7.021
17965,-22.839,-9.6109
17977,-20.788,-7.9854
17988,-22.503,-7.3185
18000,-23.47,-10.994
18012,-24.458,-10.257
18023,-25.537,-9.8008
18035,-25.534,-12.336
18047,-24.174,-10.667
18059,-23.344,-7.6961
18070,-20.241,-8.8356
18082,-24.354,-10.824
18094,-23.853,-10.013
18105,-23.51,-6.1011
18117,-25.294,-8.2548
18129,-26.788,-9.8718
18141,-25.567,-9.5703
18152,-22.482,-9.8549
18164,-23.36,-9.1314
18176,-23.203,-9.4497
18188,-22.075,-12.007
18199,-23.03,-11.779
18211,-23.056,-6.9975
18223,-21.071,-7.6956
18234,-21.566,-9.964
18246,-21.262,-9.9734
18258,-20.863,-9.938
18270,-23.695,-9.0849
18281,-24.885,-8.1075
18293,-24.878,-7.559
18305,-23.573,-9.5582
18316,-23.338,-9.4921
18328,-21.171,-8.8072
18340,-21.387,-8.7655
18352,-23.592,-9.7437
18363,-23.823,-7.3279
18375,-23.223,-8.2786
18387,-25.223,-8.9343
18398,-24.403,-7.3337
18410,-25.335,-10.629
18422,-24.253,-11.153
18434,-23.125,-9.6055
18445,-23.666,-8.7309
18457,-24.262,-11.848
18469,-23.966,-10.312
18480,-21.2,-9.9012
18492,-19.729,-8.9203
18504,-22.349,-7.6697
18516,-24.446,-7.9573
18527,-21.433,-9.1681
18539,-24.544,-9.8703
18551,-24.748,-12.16
18563,-25.305,-10.858
18574,-26.002,-11.641
18586,-21.037,-9.1064
18598,-21.238,-7.5792
18609,-24.938,-7.5288
18621,-25.001,-7.9851
18633,-23.649,-11.109
18645,-22.2,-9.3336
18656,-21.132,-7.1183
18668,-22.64,-6.6092
18680,-26.851,-8.1019
18691,-23.6,-9.8698
18703,-22.136,-9.7099
18715,-24.607,-11.939
18727,-21.114,-8.5984
18738,-20.837,-9.6971
18750,-19.673,-10.119
18762,-21.136,-9.1241
18773,-20.844,-6.1364
18785,-23.325,-9.8708
18797,-27.151,-11.427
18809,-23.481,-10.314
18820,-21.29,-9.6305
18832,-23.159,-6.7947
18844,-26.081,-5.9273
18855,-24.322,-9.5593
18867,-22.729,-9.5017
18879,-20.514,-9.0001
18891,-21.45,-8.09
18902,-22.776,-7.0551
18914,-23.591,-8.0056
18926,-24.17,-12.366
18938,-24.612,-11.842
18949,-26.207,-10.747
18961,-23.421,-10.485
18973,-24.385,-9.61
18984,-25.026,-7.3444
18996,-23.625,-6.2533
19008,-22.128,-8.3423
19020,-20.856,-10.408
19031,-24.16,-9.0768
19043,-24.254,-9.7469
19055,-25.165,-11.773
19066,-25.277,-10.43
19078,-21.042,-8.8306
19090,-20.895,-8.0627
19102,-23.485,-7.8957
19113,-23.948,-6.6058
19125,-26.264,-8.9249
19137,-25.436,-11.367
19148,-23.714,-13.96
19160,-24.77,-12.117
19172,-20.502,-11.27
19184,-22.54,-9.2578
19195,-25.356,-11.225
19207,-24.829,-11.303
19219,-23.419,-9.5572
19230,-24.396,-10.026
19242,-24.796,-11.147
19254,-21.823,-13.904
19266,-24.963,-13.403
19277,-26.327,-10.046
19289,-25.876,-8.7187
19301,-26.602,-9.9609
19313,-26.254,-12.92
19324,-21.956,-9.9099
19336,-19.817,-9.4416
19348,-22.474,-10.215
19359,-23,-8.2011
19371,-21.084,-8.7268
19383,-22.266,-9.6332
19395,-24.75,-11.078
19406,-24.856,-11.179
19418,-25.14,-13.219
19430,-22.792,-13.262
19441,-25.812,-8.433
19453,-26.276,-8.7637
19465,-23.154,-11.147
19477,-23.619,-10.908
19488,-24.529,-11.928
19500,-24.881,-11.214
19512,-26.312,-8.7188
19523,-23.764,-9.0525
19535,-23.025,-9.1683
19547,-23.817,-10.584
19559,-24.472,-10.329
19570,-24.538,-8.968
19582,-23.442,-9.0744
19594,-22.576,-10.077
19605,-24.342,-12.032
19617,-26.246,-12.812
19629,-26.697,-10.983
19641,-27.395,-10.8
19652,-28.125,-9.0293
19664,-27.01,-11.766
19676,-26.614,-10.346
19688,-27.998,-9.7597
19699,-26.263,-11.147
19711,-25.065,-10.411
19723,-23.773,-7.3204
19734,-22.844,-8.2109
19746,-24.995,-8.6738
19758,-27.058,-7.1869
19770,-25.806,-7.2276
19781,-24.157,-7.679
19793,-24.843,-9.7253
19805,-26.889,-10.504
19816,-23.137,-10.941
19828,-24.378,-9.45
19840,-23.644,-11.585
19852,-23.022,-11.151
19863,-23.211,-8.0481
19875,-24.581,-10.035
19887,-25.665,-9.7245
19898,-26.642,-9.7636
19910,-27.105,-11.485
19922,-27.441,-12.52
19934,-26.9,-10.158
19945,-24.454,-9.8159
19957,-25.115,-9.7553
19969,-25.926,-9.3208
19980,-26.041,-9.8683
19992,-24.424,-9.5976
20004,-26.039,-9.8084
20016,-24.861,-9.4927
20027,-23.633,-11.247
20039,-26.368,-10.9
20051,-29.711,-10.047
20063,-27.074,-9.1858
20074,-22.942,-11.224
20086,-23.017,-11.988
20098,-24.113,-11.056
20109,-23.401,-8.1027
20121,-24.9,-8.1084
20133,-25.322,-11.29
20145,-23.582,-9.9429
20156,-27.459,-7.943
20168,-25.928,-9.6795
20180,-22.818,-11.122
20191,-24.843,-14.837
20203,-27.014,-14.205
20215,-25.504,-12.101
20227,-23.298,-11.639
20238,-24.346,-10.636
20250,-23.691,-9.7302
20262,-25.87,-8.0058
20273,-24.539,-9.5757
20285,-23.234,-10.258
20297,-27.023,-9.3483
20309,-29.955,-9.1054
20320,-28.883,-9.5239
20332,-26.022,-8.7727
20344,-22.941,-11.359
20355,-25.347,-10.322
20367,-25.654,-10.756
20379,-24.271,-11.942
20391,-23.404,-10.206
20402,-25.129,-9.7042
20414,-26.663,-9.8999
20426,-24.121,-11.246
20438,-22.588,-10.814
20449,-23.072,-10.331
20461,-24.005,-11.67
20473,-23.449,-9.9185
20484,-24.09,-10.391
20496,-27.882,-14.335
20508,-28.739,-10.878
20520,-26.869,-10.524
20531,-25.368,-10.961
20543,-24.212,-12.016
20555,-26.611,-13.64
20566,-26.666,-13.042
20578,-27.162,-12.411
20590,-26.593,-11.927
20602,-26.804,-12.252
20613,-25.218,-11.896
20625,-23.939,-11.274
20637,-22.891,-11.399
20648,-26.563,-13.47
20660,-27.146,-11.894
20672,-24.581,-10.589
20684,-23.844,-10.523
20695,-28.151,-10.485
20707,-27.415,-12.339
20719,-27.619,-12.669
20730,-27.821,-12.29
20742,-29.526,-10.678
20754,-29.426,-8.6283
20766,-26.652,-10.029
20777,-25.844,-12.182
20789,-24.308,-10.881
20801,-25.904,-9.9399
20813,-26.477,-10.255
20824,-24.655,-9.3481
20836,-28.205,-10.17
20848,-23.666,-12.968
20859,-23.342,-12.267
20871,-25.814,-12.184
20883,-24.821,-12.966
20895,-24.206,-13.726
20906,-24.574,-9.5319
20918,-24.75,-8.6886
20930,-23.511,-10.621
20941,-26.284,-11.193
20953,-27.013,-10.572
20965,-24.83,-11.177
20977,-23.966,-10.41
20988,-22.571,-10.72
21000,-22.529,-10.168
21012,-26.104,-12.171
21023,-27.022,-12.531
21035,-26.487,-12.629
21047,-24.271,-11.28
21059,-24.384,-10.748
21070,-27.479,-11.036
21082,-23.729,-10.037
21094,-22.763,-9.0774
21105,-24.242,-13.745
21117,-25.321,-15.462
21129,-27.421,-12.888
21141,-28.189,-12.109
21152,-25.922,-11.346
21164,-24.296,-12.796
21176,-27.244,-13.861
21188,-32.378,-11.38
21199,-29.296,-9.9596
21211,-24.78,-13.989
21223,-24.258,-13.03
21234,-24.253,-10.985
21246,-26.113,-14.514
21258,-25.974,-14.446
21270,-28.278,-10.716
21281,-25.936,-11.38
21293,-24.617,-11.39
21305,-24.247,-12.76
21316,-28.137,-10.181
21328,-26.52,-13.516
21340,-22.577,-13.318
21352,-25.576,-12.511
21363,-29.367,-10.818
21375,-28.203,-10.386
21387,-27.542,-12.472
21398,-27.875,-13.271
21410,-28.438,-11.65
21422,-28.437,-9.5825
21434,-25.293,-10.957
21445,-24.701,-11.826
21457,-25.889,-12.115
21469,-28.496,-11.102
21480,-29.36,-8.0933
21492,-26.575,-11.517
21504,-27.75,-12.408
21516,-26.448,-11.324
21527,-25.513,-9.5837
21539,-28.848,-8.4039
21551,-27.212,-8.4087
21563,-26.79,-10.579
21574,-27.728,-14.442
21586,-28.148,-13.682
21598,-30.45,-13.223
21609,-27.355,-15.983
21621,-27.891,-11.723
21633,-27.197,-7.8774
21645,-25.508,-10.1
21656,-28.446,-12.153
21668,-28.355,-12.219
21680,-27.333,-10.997
21691,-27.007,-10.159
21703,-27.906,-15.108
21715,-27.87,-13.548
21727,-28.467,-12.316
21738,-27.191,-9.77
21750,-27.993,-10.101
21762,-27.491,-8.2061
21773,-29.879,-9.6929
21785,-29.187,-12.337
21797,-26.253,-13.61
21809,-28.067,-13.643
21820,-29.752,-13.122
21832,-25.441,-12.678
21844,-25.753,-12.074
21855,-24.102,-10.073
21867,-27.567,-9.7778
21879,-26.774,-11.595
21891,-27.674,-13.905
21902,-30.968,-9.1334
21914,-26.774,-9.0129
21926,-25.206,-10.768
21938,-25.055,-10.956
21949,-25.768,-9.9423
21961,-25.298,-11.876
21973,-27.207,-13.71
21984,-26.348,-12.488
21996,-27.104,-11.367
22008,-29.881,-9.5897
22020,-32.492,-10.782
22031,-28.29,-16.75
22043,-23.465,-11.491
22055,-25.051,-10.561
22066,-26.67,-11.19
22078,-26.171,-11.608
22090,-26.886,-10.951
22102,-25.202,-9.0788
22113,-24.97,-12.559
22125,-28.546,-14.131
22137,-26.544,-13.198
22148,-26.216,-11.091
22160,-27.447,-11.047
22172,-28.958,-11.95
22184,-28.028,-12.512
22195,-26.635,-13.584
22207,-26.275,-13.006
22219,-28.531,-10.923
22230,-28.339,-11.804
22242,-26.815,-12.011
22254,-28.631,-9.6542
22266,-30.183,-10.297
22277,-24.93,-13.672
22289,-24.437,-12.652
22301,-27,-11.921
22313,-25.933,-14.921
22324,-26.027,-13.922
22336,-27.185,-10.426
22348,-25.33,-12.346
22359,-24.855,-14.085
22371,-26.991,-14.958
22383,-28.296,-12.697
22395,-26.27,-14.344
22406,-28.155,-15.946
22418,-29.768,-17.213
22430,-28.304,-16.76
22441,-30.827,-13.358
22453,-26.347,-12.148
22465,-29.533,-11.637
22477,-31.709,-9.9046
22488,-28.994,-12.373
22500,-27.818,-14.627
22512,-27.395,-12.954
22523,-27.45,-12.153
22535,-26.274,-9.7229
22547,-25.768,-13.438
22559,-26.856,-13.645
22570,-26.25,-12.854
22582,-25.433,-10.12
22594,-26.819,-15.15
22605,-28.034,-11.576
22617,-29.388,-9.5983
22629,-27.714,-9.6181
22641,-26.314,-14.847
22652,-26.91,-14.173
22664,-27.097,-14.274
22676,-27.433,-17.269
22688,-29.189,-14.811
22699,-27.151,-14.032
22711,-24.421,-11.81
22723,-24.171,-10.952
22734,-25.009,-10.856
22746,-25.396,-12.306
22758,-25.373,-13.412
22770,-26.323,-12.088
22781,-26.027,-12.139
22793,-27.427,-10.135
22805,-28.058,-10.911
22816,-27.12,-13.943
22828,-27.499,-19.042
22840,-27.809,-13.795
22852,-27.335,-13.09
22863,-26.499,-13.161
22875,-27.971,-12.134
22887,-28.131,-12.175
22898,-29.039,-12.995
22910,-29.79,-13.051
22922,-29.006,-12.103
22934,-30.625,-13.719
22945,-30.024,-10.588
22957,-27.717,-9.0626
22969,-26.399,-9.843
22980,-26.294,-10.724
22992,-30.677,-10.319
23004,-27.234,-10.922
23016,-29.693,-11.979
23027,-29.25,-13.882
23039,-29.477,-12.682
23051,-26.864,-12.012
23063,-26.769,-14.399
23074,-28.371,-15.255
23086,-30.235,-14.403
23098,-27.376,-12.869
23109,-29.376,-12.403
23121,-28.949,-13.505
23133,-27.328,-16.227
23145,-26.419,-14.175
23156,-26.22,-13.377
23168,-26.413,-13.07
23180,-26.845,-12.395
23191,-26.8,-11.872
23203,-28.819,-12.643
23215,-26.825,-14.129
23227,-25.576,-12.602
23238,-25.346,-12.966
23250,-22.708,-14.173
23262,-24.422,-13.34
23273,-27.806,-14.483
23285,-29.219,-15.16
23297,-27.27,-13.863
23309,-27.415,-14.521
23320,-26.506,-13.294
23332,-25.145,-11.923
23344,-26.351,-14.296
23355,-25.267,-12.877
23367,-25.744,-11.997
23379,-27.577,-15.867
23391,-28.321,-14.662
23402,-28.712,-15.065
23414,-27.911,-17.367
23426,-29.23,-15.539
23438,-26.218,-13.666
23449,-26.128,-11.371
23461,-27.439,-12.194
23473,-26.03,-12.344
23484,-26.732,-12.633
23496,-28.083,-16.317
23508,-27.455,-13.167
23520,-28.332,-12.042
23531,-29.672,-12.143
23543,-28.7,-13.274
23555,-31.126,-15.307
23566,-28.835,-15.581
23578,-28.293,-15.398
23590,-28.357,-16.887
23602,-29.524,-15.317
23613,-28.896,-13.434
23625,-29.61,-13.681
23637,-30.778,-14.974
23648,-29.415,-16.101
23660,-28.019,-14.259
23672,-29.069,-15.052
23684,-30.991,-14.012
23695,-30.016,-15.372
23707,-26.196,-15.969
23719,-24.724,-17.635
23730,-27.254,-14.621
23742,-31.138,-13.755
23754,-31.773,-13.932
23766,-29.811,-13.747
23777,-27.729,-13.007
23789,-29.575,-13.234
23801,-27.968,-13.758
23813,-29.625,-16.691
23824,-33.568,-14.602
23836,-30.835,-13.741
23848,-27.705,-14.071
23859,-29.796,-13.819
23871,-27.816,-14.776
23883,-27.156,-13.708
23895,-28.391,-14.002
23906,-27.38,-14.43
23918,-26.962,-13.285
23930,-26.87,-10.833
23941,-28.459,-12.693
23953,-27.175,-14.819
23965,-25.71,-13.616
23977,-27.112,-12.929
23988,-27.774,-11.787
