FFT,Power Spectrum
Frequency[Hz],Level-L[dB],Level-R[dB]
11.719,-21.081,-24.604
23.438,-1.3036,-4.6285
35.156,-5.1424,1.318
46.875,3.7245,6.3456
58.594,3.6388,7.7712
70.313,2.5669,9.6616
82.031,6.1539,12.122
93.75,10.566,12.858
105.47,9.2846,12.713
117.19,7.6445,12.477
128.91,11.01,14.358
140.63,13.02,15.375
152.34,8.9084,11.723
164.06,1.861,10.216
175.78,6.7407,14.745
187.5,9.5406,13.324
199.22,7.3294,12.512
210.94,2.5862,14.218
222.66,7.7387,13.23
234.38,10.839,14.039
246.09,9.4099,14.837
257.81,7.9011,15.589
269.53,7.3073,14.023
281.25,10.424,14.294
292.97,9.6324,14.803
304.69,5.8424,13.762
316.41,2.8225,13.016
328.13,8.4622,15.513
339.84,8.7167,14.786
351.56,5.2803,13.527
363.28,3.4793,13.296
375,7.4799,12.755
386.72,6.4048,12.055
398.44,2.8329,14.074
410.16,4.5424,15.12
421.88,3.6369,14.081
433.59,2.4458,12.436
445.31,2.0713,13.812
457.03,2.1468,14.455
468.75,5.3402,14.451
480.47,6.1326,15.155
492.19,4.4489,13.983
503.91,1.846,13.203
515.63,3.8082,14.826
527.34,8.0072,13.126
539.06,6.3975,15.329
550.78,1.229,12.712
562.5,2.3265,13.115
574.22,3.4058,13.063
585.94,5.9021,19.274
597.66,5.0164,19.944
609.38,4.1997,14.756
621.09,5.8157,13.476
632.81,6.0747,13.763
644.53,3.6638,13.908
656.25,4.5182,13.159
667.97,9.4183,9.9894
679.69,7.5202,14.245
691.41,3.3949,17.348
703.13,4.1083,17.316
714.84,1.9432,15.675
726.56,3.7321,12.837
738.28,3.7978,13.832
750,5.9099,15.3
761.72,6.5744,15.97
773.44,5.7646,15.33
785.16,2.0986,17.263
796.88,3.7981,18.797
808.59,5.6143,13.364
820.31,5.7348,14.217
832.03,5.1037,15.849
843.75,6.8796,15.64
855.47,6.3013,13.363
867.19,5.7142,11.951
878.91,5.0697,11.842
890.63,3.2571,12.16
902.34,3.5957,13.105
914.06,4.6431,15.514
925.78,5.7827,16.213
937.5,2.9849,13.635
949.22,1.5816,16.737
960.94,3.5227,14.619
972.66,5.5473,14.954
984.38,4.1929,14.286
996.09,5.939,12.673
1007.8,4.9041,14.05
1019.5,4.5897,18.758
1031.3,4.382,15.426
1043,0.58809,14.703
1054.7,5.9676,15.72
1066.4,6.2179,13.934
1078.1,6.7878,16.553
1089.8,8.1408,18.632
1101.6,6.1583,14.878
1113.3,6.7844,13.959
1125,3.9603,16.957
1136.7,5.8163,15.441
1148.4,9.6015,16.275
1160.2,9.8122,14.258
1171.9,4.8301,12.687
1183.6,4.3637,13.802
1195.3,4.9962,16.387
1207,4.594,16.099
1218.8,5.0864,13.148
1230.5,4.7447,12.757
1242.2,3.3039,11.915
1253.9,3.81,12.946
1265.6,4.1256,14.296
1277.3,4.8151,11.365
1289.1,4.075,14.099
1300.8,3.4018,16.496
1312.5,5.246,15.88
1324.2,6.5863,12.66
1335.9,3.0686,10.849
1347.7,1.3845,13.631
1359.4,3.8089,15.529
1371.1,2.3296,16.462
1382.8,6.1368,10.486
1394.5,7.5792,12.291
1406.3,3.9909,13.13
1418,5.8248,13.369
1429.7,6.288,11.555
1441.4,4.0034,13.793
1453.1,5.9578,12.138
1464.8,5.5799,11.925
1476.6,5.8642,9.4318
1488.3,6.6868,10.183
1500,6.1783,13.385
1511.7,4.6408,16.419
1523.4,5.511,17.258
1535.2,2.836,14.634
1546.9,2.8085,12.804
1558.6,3.2096,12.554
1570.3,4.083,7.1299
1582,5.7687,11.038
1593.8,7.8864,12.547
1605.5,5.4384,11.796
1617.2,2.043,14.042
1628.9,4.6355,12.301
1640.6,6.2398,13.257
1652.3,6.0999,13.879
1664.1,3.2885,12.998
1675.8,2.0729,9.9101
1687.5,-0.26222,14.232
1699.2,0.83252,15.27
1710.9,1.7893,14.324
1722.7,1.9872,11.337
1734.4,0.92569,13.377
1746.1,1.3058,16.921
1757.8,1.3884,16.353
1769.5,0.26754,15.478
1781.3,0.76958,16.275
1793,4.6566,15.242
1804.7,4.6659,13.908
1816.4,3.6331,13.356
1828.1,3.0399,13.92
1839.8,2.9468,15.563
1851.6,1.8681,14.622
1863.3,-0.29669,13.726
1875,0.6078,17.158
1886.7,2.345,16.451
1898.4,3.4046,16.587
1910.2,4.1585,16.123
1921.9,1.428,13.042
1933.6,-1.92,9.8758
1945.3,0.57924,6.0722
1957,2.0417,9.423
1968.8,1.2721,12.539
1980.5,1.7178,13.742
1992.2,4.5455,14.624
2003.9,3.8122,10.389
2015.6,1.1176,12.785
2027.3,4.1072,14.432
2039.1,0.98853,13.585
2050.8,1.5585,14.606
2062.5,1.5888,15.757
2074.2,-0.32245,12.157
2085.9,2.576,12.517
2097.7,2.0915,10.618
2109.4,1.9492,11.284
2121.1,4.9727,12.526
2132.8,3.3145,11.862
2144.5,3.443,12.217
2156.3,3.9194,14.142
2168,3.0071,13.93
2179.7,2.5595,9.8139
2191.4,-0.56092,11.875
2203.1,-0.87331,10.175
2214.8,2.6576,6.6725
2226.6,3.4617,9.3875
2238.3,4.0826,12.004
2250,2.24,10.745
2261.7,-1.6689,14.858
2273.4,0.47271,15.353
2285.2,3.0083,11.319
2296.9,-0.011796,11.652
2308.6,1.7215,11.078
2320.3,3.0369,11.639
2332,0.97763,10.187
2343.8,1.9302,10.286
2355.5,4.3092,11.474
2367.2,3.2033,12.783
2378.9,0.88537,10.074
2390.6,2.2719,11.647
2402.3,3.9711,12.473
2414.1,4.7802,10.135
2425.8,3.3088,11.133
2437.5,0.094418,12.722
2449.2,-1.3051,13.869
2460.9,3.2297,11.365
2472.7,4.0435,9.4683
2484.4,0.53211,10.786
2496.1,0.76515,10.982
2507.8,0.47905,9.9083
2519.5,-2.4207,9.3432
2531.3,-3.3476,10.62
2543,0.69854,11.651
2554.7,1.8587,12.332
2566.4,0.73592,12.201
2578.1,-1.0113,13.144
2589.8,-0.79686,12.023
2601.6,-1.0947,12.158
2613.3,-1.5122,14.504
2625,-0.67612,14.143
2636.7,-1.0394,13.414
2648.4,0.62839,12.363
2660.2,0.4184,11.677
2671.9,0.3433,11.223
2683.6,0.75836,10.003
2695.3,0.11611,9.952
2707,-0.98064,10.552
2718.8,1.5665,9.7227
2730.5,1.6408,10.658
2742.2,-0.70705,11.738
2753.9,-0.28172,10.797
2765.6,1.9655,10.81
2777.3,1.022,13.438
2789.1,-0.42237,12.073
2800.8,0.62063,11.472
2812.5,-0.60451,11.116
2824.2,-2.566,10.037
2835.9,-4.5764,10.139
2847.7,-2.1611,11.37
2859.4,0.10332,7.979
2871.1,0.31915,10.431
2882.8,-0.41342,11.991
2894.5,2.1131,12.262
2906.3,1.4623,13.052
2918,0.75137,9.1202
2929.7,-0.71428,12.293
2941.4,2.0977,13.836
2953.1,3.6237,9.9266
2964.8,2.4012,12.578
2976.6,-0.64257,12.217
2988.3,-2.7639,12.934
3000,-1.5232,11.856
3011.7,0.4735,10.792
3023.4,0.76863,10.916
3035.2,-1.4316,10.994
3046.9,-1.1036,9.3066
3058.6,-1.2372,6.8917
3070.3,-3.1846,9.4393
3082,-1.7812,10.489
3093.8,-3.0154,9.9361
3105.5,-2.7056,8.7889
3117.2,1.8078,8.6668
3128.9,1.7429,9.0448
3140.6,1.7366,8.8452
3152.3,1.7165,12.896
3164.1,0.35677,10.99
3175.8,1.6947,12.615
3187.5,-0.16583,9.2444
3199.2,0.46801,10.322
3210.9,2.1557,10.383
3222.7,-0.32152,9.3287
3234.4,0.14605,12.332
3246.1,-0.79402,13.993
3257.8,-3.5458,13.266
3269.5,-1.3015,12.975
3281.3,-3.169,12.661
3293,-5.241,10.27
3304.7,-0.72677,11.341
3316.4,-0.94498,13.327
3328.1,-1.8376,9.6364
3339.8,-3.4162,9.0813
3351.6,-3.4223,9.0634
3363.3,-2.3291,9.3016
3375,-2.7188,11.879
3386.7,-0.37249,11.376
3398.4,0.75563,8.0636
3410.2,0.37699,7.0352
3421.9,0.16931,10.943
3433.6,-1.825,14.402
3445.3,-3.3288,14.612
3457,-1.185,13.87
3468.8,-2.0134,12.636
3480.5,-3.3913,13.126
3492.2,-2.87,11.272
3503.9,-4.124,8.7113
3515.6,-0.17893,8.1296
3527.3,-0.55321,7.6507
3539.1,-3.4743,11.207
3550.8,-5.2717,9.7628
3562.5,-3.8201,10.001
3574.2,0.055822,9.6891
3585.9,1.5794,10.409
3597.7,-1.5378,11.894
3609.4,0.13826,11.02
3621.1,0.31512,11.556
3632.8,-3.5849,7.29
3644.5,-2.6512,7.4907
3656.3,-3.5047,8.0668
3668,1.0163,8.5185
3679.7,13.154,11.827
3691.4,14.711,12.666
3703.1,6.161,7.1418
3714.8,0.9671,10.139
3726.6,-0.87002,10.418
3738.3,-2.7614,8.0056
3750,-3.8605,8.9746
3761.7,-2.5811,8.2192
3773.4,-4.0143,10.182
3785.2,-2.6829,12.826
3796.9,-0.089677,10.493
3808.6,-0.81048,7.0478
3820.3,-0.67649,7.8793
3832,-1.4291,6.2677
3843.8,-3.5147,5.7121
3855.5,-2.8393,6.5058
3867.2,-3.6129,8.0246
3878.9,-4.5831,10.032
3890.6,-1.8065,8.6971
3902.3,-0.96744,8.1789
3914.1,-2.0213,9.0467
3925.8,-1.3943,12.049
3937.5,-0.8953,10.652
3949.2,-2.8006,9.112
3960.9,-4.6633,10.703
3972.7,-0.55817,9.2173
3984.4,-0.3625,11.29
3996.1,-2.6371,12.749
4007.8,-2.6977,9.6225
4019.5,-4.5626,8.2913
4031.3,-4.274,6.4843
4043,-2.7927,10.558
4054.7,-3.0304,11.521
4066.4,-2.8259,7.3973
4078.1,-2.4343,6.7041
4089.8,-3.6183,8.7934
4101.6,-3.7058,7.3611
4113.3,-5.6264,6.385
4125,-6.1904,10.799
4136.7,-4.51,11.059
4148.4,-2.7797,9.5475
4160.2,-1.9228,6.9469
4171.9,-1.5355,4.1019
4183.6,-0.79421,8.0183
4195.3,-3.3373,12.073
4207,-3.9498,9.6251
4218.8,-1.4096,9.1702
4230.5,-1.3637,8.7978
4242.2,-1.9647,7.6408
4253.9,-3.0984,9.6433
4265.6,-3.5571,9.4949
4277.3,-3.1164,8.9408
4289.1,-3.8363,9.3906
4300.8,-5.0935,6.3321
4312.5,-1.7314,9.3625
4324.2,-1.9257,9.5046
4335.9,-3.0894,7.1575
4347.7,-1.7268,5.9435
4359.4,-3.5279,5.901
4371.1,-0.46994,9.0377
4382.8,-1.54,12.302
4394.5,-2.6908,12.442
4406.3,-3.9599,8.9758
4418,-2.9592,7.443
4429.7,-1.0521,8.5383
4441.4,-1.4268,10.753
4453.1,-1.2248,10.029
4464.8,-3.3588,4.262
4476.6,-3.4226,3.4498
4488.3,-2.056,6.1601
4500,-2.581,5.4132
4511.7,-2.0544,6.6181
4523.4,-7.1204,7.3651
4535.2,-6.4616,8.0187
4546.9,-4.367,5.849
4558.6,-4.915,4.686
4570.3,-4.8606,6.3405
4582,-1.3087,11.742
4593.8,-1.6777,11.986
4605.5,-3.4135,9.3729
4617.2,-4.5247,8.1347
4628.9,-2.5722,8.6934
4640.6,-4.5132,10.203
4652.3,-3.9181,8.1873
4664.1,-4.4108,8.7626
4675.8,-4.0544,10.55
4687.5,-4.9642,8.2871
4699.2,-4.5059,9.2369
4710.9,-3.0562,8.538
4722.7,-3.2071,5.8488
4734.4,-1.9728,4.0109
4746.1,-2.9174,9.4106
4757.8,-1.4608,11.772
4769.5,-4.2148,6.21
4781.3,-5.3636,6.4763
4793,-3.0741,7.315
4804.7,-4.1797,8.1437
4816.4,-4.4623,9.7631
4828.1,-4.4735,8.7272
4839.8,-4.4246,7.0526
4851.6,-1.6746,5.924
4863.3,-4.2756,8.4023
4875,-4.3738,9.6241
4886.7,-4.2267,1.6292
4898.4,-4.9279,7.3943
4910.2,-3.6899,8.8113
4921.9,-3.6859,7.1464
4933.6,-3.7474,6.6079
4945.3,-3.3869,7.2283
4957,-5.5032,4.7428
4968.8,-3.0624,4.2743
4980.5,-3.6161,6.2897
4992.2,-3.735,3.5989
5003.9,-5.4625,8.6937
5015.6,-3.3125,9.1826
5027.3,-4.0355,5.761
5039.1,-5.0792,6.4652
5050.8,-6.5896,7.9989
5062.5,-5.0365,5.3142
5074.2,-7.1181,6.4154
5085.9,-5.0495,6.558
5097.7,-4.7681,5.7597
5109.4,-5.4336,7.2346
5121.1,-3.5829,8.3067
5132.8,-2.5243,7.9665
5144.5,-1.5511,8.8481
5156.3,-2.9215,8.9429
5168,-3.1888,7.4601
5179.7,-6.0874,4.8231
5191.4,-2.3927,1.5049
5203.1,-2.2272,1.899
5214.8,-2.6396,4.1005
5226.6,-5.3182,4.8354
5238.3,-5.9395,1.0746
5250,-5.828,2.873
5261.7,-4.871,4.7628
5273.4,-6.3007,7.1811
5285.2,-6.3661,7.7918
5296.9,-5.0166,7.1235
5308.6,-4.3096,4.9525
5320.3,-5.2388,3.9716
5332,-6.5996,4.6701
5343.8,-6.2398,7.5018
5355.5,-5.3084,6.0445
5367.2,-5.0377,7.3577
5378.9,-3.4261,5.0688
5390.6,-0.34011,5.6177
5402.3,-0.69393,3.9041
5414.1,-5.0354,10.004
5425.8,-5.6237,8.1789
5437.5,-3.432,5.8465
5449.2,-6.2678,7.6279
5460.9,-4.684,7.1036
5472.7,-5.5692,8.7637
5484.4,-5.2406,7.1562
5496.1,-5.1564,7.1179
5507.8,-5.1683,6.1898
5519.5,-6.1703,4.0779
5531.3,-5.7841,5.5495
5543,-4.0869,4.6397
5554.7,-3.2969,6.1238
5566.4,-3.9813,6.6779
5578.1,-5.7832,5.2367
5589.8,-7.7116,6.8137
5601.6,-5.9474,8.252
5613.3,-5.0739,10.057
5625,-3.5855,8.1384
5636.7,-1.1104,6.9813
5648.4,-4.4106,7.3117
5660.2,-4.0401,5.9607
5671.9,-4.2308,5.671
5683.6,-4.9189,4.8161
5695.3,-6.6213,3.5493
5707,-3.5893,5.2899
5718.8,-2.763,5.1526
5730.5,-2.185,4.0582
5742.2,-1.1391,5.9336
5753.9,-3.1359,7.2459
5765.6,-3.8369,7.4877
5777.3,-5.4386,5.9753
5789.1,-5.8534,4.6323
5800.8,-2.3259,5.4108
5812.5,-1.6466,5.3456
5824.2,-3.765,6.8242
5835.9,-6.7142,8.6216
5847.7,-5.4369,6.7725
5859.4,-2.7299,7.3096
5871.1,-2.8869,6.3642
5882.8,-5.5585,4.343
5894.5,-7.5438,4.4922
5906.3,-6.6655,5.309
5918,-8.669,5.7
5929.7,-7.5142,4.0089
5941.4,-7.3445,5.4525
5953.1,-5.4199,7.8134
5964.8,-2.8842,7.978
5976.6,-1.1906,6.0379
5988.3,-2.3735,2.3818
6000,-7.7685,5.15
6011.7,-6.4202,7.1309
6023.4,-4.5609,4.9564
6035.2,-5.3059,3.4902
6046.9,-5.1912,3.833
6058.6,-5.1694,4.3376
6070.3,-4.599,6.5069
6082,-5.9671,7.9589
6093.8,-9.1574,6.9196
6105.5,-7.7983,4.9013
6117.2,-5.2833,5.9909
6128.9,-3.7133,6.7327
6140.6,-7.0432,4.7365
6152.3,-8.9552,6.0254
6164.1,-3.8059,5.6652
6175.8,-2.4135,3.916
6187.5,-4.4793,4.7592
6199.2,-4.9747,7.9606
6210.9,-4.1061,9.7049
6222.7,-1.3685,1.4637
6234.4,-1.0833,2.0414
6246.1,-5.6524,5.1602
6257.8,-6.8702,6.7135
6269.5,-5.6096,7.2776
6281.3,-6.4161,5.7631
6293,-5.4814,3.1273
6304.7,-3.2389,4.2736
6316.4,-5.5973,4.5727
6328.1,-9.9243,6.978
6339.8,-6.979,4.7356
6351.6,-5.6525,3.9826
6363.3,-7.599,5.3624
6375,-6.5914,6.2904
6386.7,-5.8537,4.0502
6398.4,-6.2222,4.0242
6410.2,-5.2629,4.1183
6421.9,-7.2459,2.3764
6433.6,-5.2081,3.3148
6445.3,-3.7378,2.8605
6457,-4.9178,3.4259
6468.8,-5.386,6.4751
6480.5,-1.8341,7.0511
6492.2,-2.645,4.4137
6503.9,-6.4984,0.99384
6515.6,-7.9929,1.8472
6527.3,-3.6537,0.986
6539.1,-8.3744,0.4141
6550.8,-9.5537,2.5524
6562.5,-5.6632,4.4758
6574.2,-5.4211,3.8655
6585.9,-6.6947,8.1582
6597.7,-4.7658,8.0301
6609.4,-5.9163,6.9686
6621.1,-7.0374,8.244
6632.8,-8.4642,7.4474
6644.5,-6.3283,4.046
6656.3,-7.4909,5.5708
6668,-7.9127,5.5374
6679.7,-7.5571,3.2902
6691.4,-5.9355,3.1094
6703.1,-5.3209,3.7186
6714.8,-8.3252,5.8421
6726.6,-5.7246,4.3207
6738.3,-5.9924,4.6623
6750,-7.4171,4.2613
6761.7,-6.6651,6.848
6773.4,-5.2476,5.7315
6785.2,-6.1021,3.3573
6796.9,-6.983,5.3966
6808.6,-7.0714,6.1458
6820.3,-8.2304,7.271
6832,-7.9718,9.5162
6843.8,-5.7878,10.454
6855.5,-6.2994,4.9884
6867.2,-9.4094,2.1265
6878.9,-8.8491,2.3652
6890.6,-4.1727,4.3391
6902.3,-4.7939,4.013
6914.1,-6.3878,0.69595
6925.8,-8.1945,1.7291
6937.5,-7.5235,1.5817
6949.2,-5.0654,3.5311
6960.9,-6.5555,4.2833
6972.7,-8.6392,3.0688
6984.4,-8.2778,3.658
6996.1,-6.8427,3.6848
7007.8,-5.7912,1.7905
7019.5,-5.9987,5.2578
7031.3,-5.7808,5.4803
7043,-5.5339,-0.16823
7054.7,-5.6142,-0.023718
7066.4,-7.0028,1.1397
7078.1,-7.6319,1.8376
7089.8,-8.9749,1.1421
7101.6,-7.9368,2.7497
7113.3,-6.0273,3.6706
7125,-3.479,2.8113
7136.7,-3.4497,2.4791
7148.4,-6.7283,5.0547
7160.2,-5.3132,4.0352
7171.9,-3.1822,-0.21364
7183.6,-2.7809,1.7819
7195.3,-4.9027,2.9814
7207,-5.7419,4.6691
7218.8,-8.0274,4.1019
7230.5,-5.5776,3.4172
7242.2,-4.2313,5.7356
7253.9,-4.6267,5.7185
7265.6,-3.5127,2.6874
7277.3,-5.2178,1.7097
7289.1,-6.5181,2.7888
7300.8,-6.5053,2.6826
7312.5,-8.4051,1.8128
7324.2,-9.0864,1.4177
7335.9,-8.7718,2.3745
7347.7,-7.1465,3.6118
7359.4,-10.817,3.4264
7371.1,-4.0221,4.0734
7382.8,-5.4767,2.8646
7394.5,-7.6931,2.0303
7406.3,-7.2158,2.0159
7418,-8.1623,3.4373
7429.7,-6.9501,0.64045
7441.4,-7.3487,4.8305
7453.1,-7.2925,4.8908
7464.8,-9.3011,-0.62095
7476.6,-10.047,0.6179
7488.3,-8.8386,3.504
7500,-6.6786,3.1692
7511.7,-9.7161,2.1603
7523.4,-9.0564,3.7984
7535.2,-11.373,2.1391
7546.9,-9.8455,2.344
7558.6,-9.5369,3.2426
7570.3,-7.2485,5.2043
7582,-6.9981,5.9535
7593.8,-7.4194,2.462
7605.5,-6.157,-0.25843
7617.2,-8.0074,1.8805
7628.9,-11.195,5.7335
7640.6,-11.022,3.913
7652.3,-8.4844,1.414
7664.1,-8.3988,4.6457
7675.8,-7.105,5.8625
7687.5,-6.8465,2.9906
7699.2,-8.0712,1.2095
7710.9,-9.89,5.3639
7722.7,-9.3313,3.3008
7734.4,-7.5966,5.2096
7746.1,-6.5875,4.4292
7757.8,-6.2703,3.972
7769.5,-8.0937,3.9289
7781.3,-7.8379,2.5995
7793,-7.9715,2.1942
7804.7,-7.3459,3.2296
7816.4,-10.057,3.8
7828.1,-10.431,3.6435
7839.8,-7.4331,4.4195
7851.6,-6.3809,3.6752
7863.3,-5.1979,1.5943
7875,-5.5571,2.0881
7886.7,-9.1178,1.2328
7898.4,-12.014,1.9138
7910.2,-7.4675,2.7226
7921.9,-5.1786,3.9039
7933.6,-6.7071,4.103
7945.3,-5.7526,1.7734
7957,-4.8619,2.2122
7968.8,-6.7478,4.8492
7980.5,-9.3428,5.8231
7992.2,-9.4914,4.0511
8003.9,-8.2697,4.3479
8015.6,-8.4913,5.6975
8027.3,-11.676,5.7603
8039.1,-13.443,0.96918
8050.8,-12.247,1.8379
8062.5,-11.443,0.84474
8074.2,-11.127,1.613
8085.9,-6.8285,-0.70255
8097.7,-6.716,1.7072
8109.4,-9.9345,3.4202
8121.1,-12.999,3.4327
8132.8,-10.469,5.3191
8144.5,-7.894,4.4613
8156.3,-6.1564,1.7105
8168,-7.2047,3.0488
8179.7,-7.8819,0.62691
8191.4,-7.6685,0.61381
8203.1,-7.9595,0.74379
8214.8,-7.8504,3.4281
8226.6,-8.9613,4.3175
8238.3,-10.777,0.93519
8250,-9.1492,3.4602
8261.7,-8.699,3.1038
8273.4,-7.4555,3.1249
8285.2,-7.5042,3.7183
8296.9,-8.0672,3.7239
8308.6,-10.107,2.4156
8320.3,-9.2785,-0.58755
8332,-11.236,-3.0441
8343.8,-12.672,0.77458
8355.5,-7.503,3.5842
8367.2,-6.4195,5.4659
8378.9,-11.108,3.971
8390.6,-11.877,-2.4892
8402.3,-11.061,-1.3186
8414.1,-10.057,0.40336
8425.8,-9.3298,0.80185
8437.5,-11.852,1.1448
8449.2,-9.1066,1.3957
8460.9,-7.8314,1.674
8472.7,-10.06,1.9408
8484.4,-11.753,2.2328
8496.1,-9.7115,-0.35399
8507.8,-9.6041,-1.0184
8519.5,-10.944,-1.0368
8531.3,-8.4069,-1.4975
8543,-7.5849,0.18759
8554.7,-7.4414,1.729
8566.4,-6.1244,3.9228
8578.1,-6.6213,2.928
8589.8,-7.2965,1.3107
8601.6,-10.761,0.95761
8613.3,-11.139,1.8426
8625,-10.558,2.8256
8636.7,-13.447,0.94674
8648.4,-11.395,0.24103
8660.2,-10.92,2.5141
8671.9,-15.141,3.0223
8683.6,-15.133,1.5993
8695.3,-12.544,0.023253
8707,-12.422,-1.6475
8718.8,-12.431,0.82814
8730.5,-10.81,1.7023
8742.2,-7.2825,-0.14047
8753.9,-9.153,0.90742
8765.6,-11.425,0.031907
8777.3,-10.738,1.1577
8789.1,-10.087,4.3251
8800.8,-11.086,4.087
8812.5,-9.9045,0.95987
8824.2,-9.2022,2.3013
8835.9,-11.478,1.6155
8847.7,-12.31,2.4152
8859.4,-12.395,3.0542
8871.1,-12.844,1.714
8882.8,-12.171,-0.65251
8894.5,-12.413,2.9257
8906.3,-12.565,3.8473
8918,-11.829,2.3579
8929.7,-9.3218,2.8812
8941.4,-9.7708,2.1462
8953.1,-9.9179,3.1157
8964.8,-10.082,4.0041
8976.6,-8.1919,2.2445
8988.3,-8.5576,1.8968
9000,-11.144,0.2208
9011.7,-11.381,-1.4934
9023.4,-11.635,1.2377
9035.2,-11.507,0.44269
9046.9,-9.1022,0.67935
9058.6,-11.089,1.0038
9070.3,-10.33,-0.15947
9082,-7.5316,1.4213
9093.8,-9.9389,2.4617
9105.5,-9.988,3.6366
9117.2,-10.972,1.6131
9128.9,-9.6912,1.6585
9140.6,-7.8404,0.76192
9152.3,-11.262,0.27793
9164.1,-12.198,0.32607
9175.8,-10.256,2.0429
9187.5,-9.942,0.61561
9199.2,-7.9672,-0.65258
9210.9,-8.5732,3.4768
9222.7,-10.692,0.31229
9234.4,-11.853,2.0059
9246.1,-10.025,2.9817
9257.8,-10.04,2.0245
9269.5,-10.225,2.3659
9281.3,-11.102,-4.6821
9293,-11.285,-1.2483
9304.7,-12.281,-0.55334
9316.4,-11.689,4.0327
9328.1,-12.832,2.4872
9339.8,-11.755,2.159
9351.6,-10.312,3.0287
9363.3,-9.8954,0.98834
9375,-12.859,1.5012
9386.7,-11.261,3.2151
9398.4,-10.398,1.2292
9410.2,-10.896,2.2443
9421.9,-10.886,3.582
9433.6,-10.681,4.3162
9445.3,-9.208,3.3205
9457,-8.5058,1.8249
9468.8,-10.813,1.1392
9480.5,-9.3328,2.2207
9492.2,-7.1632,0.48636
9503.9,-11.217,-1.922
9515.6,-11.258,-2.0754
9527.3,-12.87,3.3163
9539.1,-11.282,3.7248
9550.8,-10.039,1.6484
9562.5,-10.372,-0.75044
9574.2,-11.225,-0.70118
9585.9,-11.061,1.9566
9597.7,-13.236,2.0266
9609.4,-10.935,0.13737
9621.1,-10.223,0.89064
9632.8,-13.766,1.316
9644.5,-11.619,2.9083
9656.3,-9.9513,1.2945
9668,-12.374,0.38347
9679.7,-12.312,-2.156
9691.4,-13.104,-3.0209
9703.1,-12.392,0.23745
9714.8,-10.394,2.806
9726.6,-9.6786,0.60995
9738.3,-10.593,0.77688
9750,-10.22,0.072174
9761.7,-11.804,-0.61629
9773.4,-9.4287,-0.47128
9785.2,-9.1203,0.86878
9796.9,-11.57,1.6221
9808.6,-12.127,4.7721
9820.3,-10.959,2.9747
9832,-9.912,-1.4902
9843.8,-10.412,-4.2186
9855.5,-12.37,-4.3803
9867.2,-10.657,-3.6368
9878.9,-14.401,-0.25699
9890.6,-14.068,-1.3603
9902.3,-12.747,-0.84281
9914.1,-12.07,2.4481
9925.8,-12.312,0.90494
9937.5,-11.826,1.1483
9949.2,-10.584,1.8489
9960.9,-9.9021,5.0526
9972.7,-10.616,4.0561
9984.4,-10.8,1.4133
9996.1,-10.24,0.67353
10008,-8.7671,-0.8667
10020,-8.4668,-2.837
10031,-9.7584,0.37937
10043,-12.041,-0.47058
10055,-8.8883,-1.8262
10066,-11.208,-1.3899
10078,-10.537,-0.86627
10090,-9.2488,-1.6931
10102,-11.967,-0.63184
10113,-15.2,2.823
10125,-13.546,0.95418
10137,-11.983,0.71902
10148,-12.758,-0.54008
10160,-14.731,-1.1293
10172,-14.508,-2.9755
10184,-12.28,-0.81955
10195,-11.361,3.9622
10207,-14.746,2.8293
10219,-13.502,-0.87985
10230,-9.9489,0.74229
10242,-9.1088,1.1099
10254,-9.7536,-1.1177
10266,-10.889,0.14926
10277,-15.722,1.9234
10289,-14.188,1.0731
10301,-14.526,-3.2334
10313,-14.719,-1.9169
10324,-13.82,-1.2806
10336,-14.077,-1.9001
10348,-15.548,-0.5878
10359,-14.547,0.5713
10371,-12.6,1.8628
10383,-17.067,0.75202
10395,-12.262,-2.3248
10406,-10.006,-1.8984
10418,-13.961,-1.4467
10430,-14.319,1.0266
10441,-12.371,0.69156
10453,-14.13,-0.373
10465,-13.918,-1.6588
10477,-11.73,-2.632
10488,-9.1705,0.54854
10500,-8.6959,0.90592
10512,-10.181,-1.2192
10523,-15.065,-1.1367
10535,-12.311,-1.0312
10547,-10.807,-0.081795
10559,-12.35,-1.0165
10570,-14.779,-2.2857
10582,-12.433,-1.969
10594,-12.294,-0.5134
10605,-12.813,-1.8688
10617,-14.962,-1.7465
10629,-12.497,1.5532
10641,-12.656,2.1245
10652,-11.476,-1.7427
10664,-13.263,-4.6486
10676,-12.298,-2.3376
10688,-9.6084,-1.1022
10699,-12.084,-0.54319
10711,-10.964,1.4327
10723,-9.2957,-1.2191
10734,-9.2206,-1.6236
10746,-11.039,0.90327
10758,-10.01,-1.0312
10770,-7.6517,-4.0733
10781,-7.2222,-4.3824
10793,-11.093,-4.2084
10805,-12.757,-2.3826
10816,-16.196,-2.2238
10828,-14.426,-3.6677
10840,-14.422,-5.4214
10852,-11.328,-6.4944
10863,-11.837,-5.2436
10875,-14.429,-3.9383
10887,-16.797,-1.1943
10898,-13.869,-4.2999
10910,-15.159,-3.3001
10922,-13.931,-0.5083
10934,-12.78,2.3157
10945,-13.172,2.7764
10957,-12.137,1.0715
10969,-15.045,-0.51264
10980,-14.199,-2.5606
10992,-13.018,-4.3469
11004,-10.608,-1.3244
11016,-8.8424,-0.64227
11027,-10.761,-1.2908
11039,-11.644,-1.0077
11051,-7.5063,-0.40762
11063,-4.3685,-2.1713
11074,-11.684,-4.5882
11086,-9.5248,-2.9276
11098,-8.145,-1.4532
11109,-11.373,-0.69426
11121,-10.428,-0.75905
11133,-10.517,-0.036842
11145,-12.954,-0.9338
11156,-12.08,-5.5109
11168,-11.224,-4.5892
11180,-11.013,-2.1925
11191,-9.8909,-2.4859
11203,-11.784,-3.9054
11215,-12.048,0.55077
11227,-12.097,0.57352
11238,-13.743,-2.9693
11250,-14.578,-3.0635
11262,-14.045,-2.8324
11273,-11.002,0.038505
11285,-14.119,-0.4208
11297,-12.617,-0.39097
11309,-12.4,0.39009
11320,-13.345,-0.20885
11332,-12.597,-1.4976
11344,-9.7561,-3.5489
11355,-12.456,-3.5541
11367,-14.386,-1.2307
11379,-13.574,0.5375
11391,-14.098,0.85087
11402,-14.077,-2.747
11414,-10.128,-5.468
11426,-10,-2.0295
11438,-11.823,-0.90213
11449,-11.878,-0.48902
11461,-11.751,-4.0321
11473,-11.351,-3.4297
11484,-13.534,-5.037
11496,-14.901,-0.83339
11508,-10.805,-2.2192
11520,-9.5957,-2.4469
11531,-10.004,-1.6412
11543,-10.297,-0.27741
11555,-10.58,-3.7665
11566,-9.9374,1.0892
11578,-8.0492,0.79943
11590,-9.8475,0.002837
11602,-11.367,0.63961
11613,-10.921,-1.6954
11625,-13.066,-0.38854
11637,-10.682,-1.3344
11648,-11.532,-3.4425
11660,-14.278,-0.29937
11672,-12.988,-0.15881
11684,-13.739,-0.66005
11695,-11.767,-1.2485
11707,-12.884,-0.565
11719,-13.341,-2.3117
11730,-11.985,-4.8178
11742,-14.629,-3.75
11754,-11.501,-5.7254
11766,-11.637,-5.3567
11777,-12.111,-2.1191
11789,-10.575,0.64677
11801,-13.727,-1.3677
11813,-12.473,-2.4273
11824,-11.974,-4.1831
11836,-11.335,-2.5379
11848,-12.896,-0.6059
11859,-9.7386,-1.7979
11871,-10.664,-4.6353
11883,-12.939,-3.6426
11895,-11.832,-1.8846
11906,-13.853,-0.15908
11918,-14.98,-1.7748
11930,-14.872,-1.9963
11941,-14.193,-2.7155
11953,-14.166,-2.9789
11965,-14.099,-2.9342
11977,-15.597,-0.8617
11988,-12.941,-1.3421
12000,-11.84,-2.3873
12012,-11.421,-0.79139
12023,-11.733,-2.5213
12035,-12.412,-3.9293
12047,-13.394,-1.6648
12059,-12.673,-0.49687
12070,-14.804,-2.2227
12082,-14.741,-3.6136
12094,-12.749,-2.4392
12105,-11.098,-1.6303
12117,-12.913,-3.1185
12129,-15.766,-4.1031
12141,-14.24,-1.0792
12152,-10.871,-1.801
12164,-9.3277,-1.2159
12176,-11.044,-3.9484
12188,-16.337,1.718
12199,-13.905,2.0529
12211,-14.565,0.72418
12223,-14.06,0.43918
12234,-14.151,-2.4002
12246,-11.351,-3.0409
12258,-10.469,-2.011
12270,-11.19,-3.0078
12281,-12.354,-1.7438
12293,-12.416,-2.8358
12305,-13.637,-2.6094
12316,-14.31,-0.82623
12328,-11.25,-1.6714
12340,-11.683,-4.6703
12352,-12.794,-4.6812
12363,-13.967,-4.1123
12375,-13.071,-1.6154
12387,-14.321,-4.0843
12398,-14.889,-6.3806
12410,-14.49,-3.0951
12422,-12.362,-3.6143
12434,-13.162,-3.9831
12445,-13.3,-0.079843
12457,-10.124,-0.50488
12469,-10.537,-6.2
12480,-12.37,-3.3237
12492,-13.625,-2.3481
12504,-13.938,-3.1327
12516,-11.902,-3.9159
12527,-13.366,-0.71525
12539,-15.874,-3.4592
12551,-13.701,-1.9666
12563,-12.376,-1.3119
12574,-13.112,-2.8522
12586,-12.902,-2.6138
12598,-13.19,-1.415
12609,-13.848,-2.1827
12621,-13.493,-4.0631
12633,-17.013,-4.0924
12645,-15.342,-2.8255
12656,-16.369,0.13144
12668,-17.053,0.58847
12680,-13.634,-1.0645
12691,-10.907,-2.7483
12703,-11.718,-4.5737
12715,-16.522,-5.3012
12727,-15.374,-2.93
12738,-12.396,-5.2812
12750,-11.883,-6.1842
12762,-10.168,-2.5662
12773,-10.24,-1.9315
12785,-11.128,-4.2648
12797,-10.562,-4.9776
12809,-13.17,-2.3334
12820,-13.661,-3.5175
12832,-12.419,-3.3591
12844,-14.603,-0.6187
12855,-13.125,-2.2222
12867,-12.247,-5.0546
12879,-12.362,-5.1315
12891,-12.961,-2.2366
12902,-13.817,-4.5871
12914,-15.107,-4.833
12926,-17.435,-7.4181
12938,-15.589,-5.6743
12949,-13.263,-3.8863
12961,-13.479,-3.213
12973,-15.012,-4.9813
12984,-14.244,-7.7455
12996,-12.774,-3.3129
13008,-12.793,-3.587
13020,-16.687,-5.4489
13031,-14.515,-4.4669
13043,-12.661,-1.7757
13055,-15.393,-3.5915
13066,-15.565,-5.2062
13078,-12.589,-3.2513
13090,-12.255,-2.5472
13102,-13.571,-0.75363
13113,-14.826,-0.72503
13125,-12.522,-3.5714
13137,-13.688,-7.6413
13148,-15.378,-3.0058
13160,-15.296,-3.2704
13172,-17.03,-1.9174
13184,-12.85,0.22854
13195,-12.931,-1.2445
13207,-13.207,-4.3677
13219,-12.861,-5.3268
13230,-13.161,-1.0224
13242,-11.857,-3.844
13254,-11.86,-6.9957
13266,-12.364,-6.2246
13277,-10.202,-4.3759
13289,-10.792,-2.5579
13301,-12.745,-2.7622
13313,-15.892,-5.0775
13324,-17.179,-4.0131
13336,-15.946,-6.9338
13348,-12.525,-4.6235
13359,-12.824,-4.9339
13371,-19.347,-4.3808
13383,-15.513,-2.5563
13395,-14.754,-2.808
13406,-13.142,-6.8088
13418,-13.583,-4.9808
13430,-13.367,-4.0361
13441,-12.443,-1.7631
13453,-13.21,-2.3429
13465,-11.129,-6.9531
13477,-15.332,-7.2294
13488,-14.482,-7.266
13500,-15.498,-4.8591
13512,-15.137,-5.9336
13523,-14.134,-5.8834
13535,-14.152,-3.1957
13547,-14.25,-4.1292
13559,-15.194,-5.0574
13570,-15.088,-4.6825
13582,-12.709,-2.7614
13594,-13.045,-3.5547
13605,-15.875,-3.289
13617,-15.85,-6.9075
13629,-14.105,-7.6463
13641,-13.837,-4.451
13652,-12.615,-5.2117
13664,-11.627,-7.8485
13676,-14.257,-3.9064
13688,-15.514,-2.2353
13699,-12.417,-3.8103
13711,-13.161,-3.6532
13723,-14.71,-5.2608
13734,-13.82,-3.7152
13746,-13.113,-7.4792
13758,-12.311,-3.5567
13770,-12.262,-2.766
13781,-12.649,-6.0695
13793,-15.194,-8.0775
13805,-15.261,-5.3112
13816,-16.944,-5.8156
13828,-16.305,-4.6372
13840,-14.373,-5.9339
13852,-16.787,-3.1774
13863,-16.213,-5.4611
13875,-13.701,-5.0028
13887,-14.82,-4.4992
13898,-14.146,-5.3291
13910,-16.525,-2.9509
13922,-16.241,-1.345
13934,-15.917,-1.9241
13945,-15.375,-5.442
13957,-13.495,-5.89
13969,-12.63,-4.1156
13980,-14.507,-2.8977
13992,-12.955,-5.003
14004,-12.777,-7.1683
14016,-11.39,-6.3539
14027,-15.582,-3.7962
14039,-13.718,-3.7619
14051,-13.863,-5.1848
14063,-15.036,-3.8518
14074,-15.258,-3.2304
14086,-15.421,-3.9786
14098,-14.971,-6.889
14109,-16.278,-3.884
14121,-17.408,-3.0259
14133,-17.474,-3.3905
14145,-17.891,-4.7502
14156,-18.751,-4.3097
14168,-11.939,-4.478
14180,-11.384,-3.2855
14191,-13.591,-3.1728
14203,-16.107,-1.982
14215,-15.017,-2.0126
14227,-18.405,-2.7707
14238,-15.825,-2.2463
14250,-14.209,-1.945
14262,-16.757,-3.3567
14273,-17.802,-4.0885
14285,-18.026,-4.6224
14297,-15.533,-2.7424
14309,-15.434,-1.4804
14320,-15.642,-4.5474
14332,-16.235,-2.5733
14344,-18.631,-5.3801
14355,-19.885,-7.5934
14367,-17.057,-5.7338
14379,-14.292,-6.2355
14391,-18.538,-6.6257
14402,-20.964,-9.9203
14414,-19.418,-6.0263
14426,-17.748,-2.545
14438,-16.598,-2.8276
14449,-16.133,-5.6018
14461,-16.714,-4.1764
14473,-15.954,-2.4417
14484,-14.261,-3.0201
14496,-16.296,-0.68713
14508,-17.203,-1.8939
14520,-16.328,-4.9751
14531,-15.929,-4.7555
14543,-14.952,-5.7622
14555,-15.301,-6.4893
14566,-15.004,-4.2896
14578,-18.938,-4.0676
14590,-15.374,-6.2367
14602,-18.612,-6.5302
14613,-18.254,-3.7558
14625,-14.998,-3.6349
14637,-14.884,-6.2512
14648,-17.249,-5.9345
14660,-16.578,-4.9985
14672,-17.897,-6.2875
14684,-16.736,-6.5102
14695,-16.146,-4.2897
14707,-15.796,-3.0459
14719,-14.094,-5.9633
14730,-17.311,-6.8757
14742,-16.422,-4.6705
14754,-14.103,-5.0095
14766,-14.195,-1.1656
14777,-15.152,-2.2528
14789,-16.573,-4.1219
14801,-15.498,-5.5401
14813,-15.719,-6.2709
14824,-17.276,-2.6242
14836,-15.333,-3.2917
14848,-15.534,-3.7084
14859,-17.265,-3.4696
14871,-16.132,-6.0955
14883,-17.102,-3.8416
14895,-17.931,-3.4063
14906,-16.024,-3.4295
14918,-17.039,-4.2385
14930,-18.127,-6.9224
14941,-19.405,-9.2304
14953,-17.7,-7.1079
14965,-18.364,-8.6436
14977,-20.148,-6.7359
14988,-17.664,-9.0766
15000,-19.925,-10.17
15012,-19.173,-10.381
15023,-23.489,-7.1952
15035,-17.637,-8.952
15047,-16,-5.7925
15059,-16.559,-4.7728
15070,-22.105,-5.1915
15082,-19.708,-6.4918
15094,-18.007,-4.8967
15105,-17.34,-4.5088
15117,-17.125,-5.0612
15129,-14.842,-4.1762
15141,-18.57,-3.1984
15152,-18.355,-6.9433
15164,-17.776,-6.1446
15176,-19.539,-5.2247
15188,-17.467,-11.159
15199,-17.424,-5.8664
15211,-18.379,-9.6212
15223,-19.271,-7.4723
15234,-19.044,-5.6602
15246,-19.828,-5.7517
15258,-17.864,-5.3016
15270,-16.015,-5.0163
15281,-15.576,-4.712
15293,-17.05,-5.4723
15305,-17.302,-6.9801
15316,-18.212,-7.1746
15328,-18.507,-4.4876
15340,-18.781,-5.0266
15352,-17.356,-8.2468
15363,-18.297,-4.8639
15375,-18.639,-4.3742
15387,-16.934,-3.3113
15398,-15.611,-2.8639
15410,-16.329,-5.4952
15422,-14.511,-6.7059
15434,-15.478,-2.6728
15445,-16.353,-7.3694
15457,-15.239,-8.9816
15469,-15.855,-8.5672
15480,-16.023,-7.1296
15492,-21.021,-7.0972
15504,-22.664,-5.7117
15516,-23.265,-6.6127
15527,-19.941,-5.8527
15539,-16.97,-7.438
15551,-17.101,-4.2707
15563,-17.89,-6.5816
15574,-19.44,-5.0796
15586,-18.628,-5.264
15598,-17.386,-7.7965
15609,-15.373,-8.3082
15621,-17.833,-9.4966
15633,-20.703,-4.3261
15645,-17.854,-3.7301
15656,-17.523,-4.153
15668,-18.707,-5.1879
15680,-19.329,-5.7209
15691,-21.676,-4.7165
15703,-22.248,-3.2626
15715,-19.504,-5.7333
15727,-16.228,-8.2891
15738,-16.084,-11.134
15750,-20.225,-6.6054
15762,-21.949,-6.3783
15773,-20.752,-9.0324
15785,-17.445,-10.637
15797,-18.769,-9.0594
15809,-17.742,-6.3059
15820,-17.693,-5.167
15832,-17.952,-6.648
15844,-19.92,-8.8337
15855,-21.178,-7.5803
15867,-19.132,-7.5343
15879,-16.677,-10.781
15891,-17.658,-9.6369
15902,-21.075,-8.2259
15914,-22.32,-10.605
15926,-20.855,-7.8769
15938,-19.826,-8.8378
15949,-17.97,-7.6624
15961,-20.527,-2.8337
15973,-22.681,-7.3443
15984,-18.072,-4.4652
15996,-17.548,-4.713
16008,-20.238,-5.2871
16020,-19.894,-7.598
16031,-17.156,-9.1872
16043,-16.544,-7.9319
16055,-17.69,-9.0304
16066,-17.766,-9.1096
16078,-19.776,-9.2714
16090,-22.187,-6.3767
16102,-18.521,-7.9347
16113,-17.017,-9.5359
16125,-19.173,-5.1199
16137,-22.296,-3.0124
16148,-22.751,-7.0334
16160,-21.023,-4.9997
16172,-19.309,-5.2762
16184,-20.507,-4.9593
16195,-22.834,-6.0623
16207,-21.355,-5.2853
16219,-21.363,-6.7111
16230,-21.745,-5.2186
16242,-22.766,-8.1862
16254,-20.733,-7.2898
16266,-17.664,-7.9177
16277,-17.896,-5.1785
16289,-18.693,-6.5054
16301,-17.441,-8.5235
16313,-21.25,-7.968
16324,-20.881,-8.0824
16336,-21.366,-6.4329
16348,-20.929,-8.3484
16359,-19.942,-4.7118
16371,-20.308,-5.8388
16383,-23.635,-6.9307
16395,-24.215,-5.3443
16406,-21.627,-5.3511
16418,-16.743,-7.535
16430,-17.713,-8.6411
16441,-17.687,-8.7776
16453,-18.054,-8.1397
16465,-19.289,-6.0075
16477,-22.635,-6.2523
16488,-22.186,-8.342
16500,-21.345,-9.1176
16512,-17.224,-9.8637
16523,-16.497,-9.5203
16535,-19.562,-8.0311
16547,-20.992,-6.9853
16559,-19.562,-7.3448
16570,-20.945,-5.6221
16582,-20.995,-8.9143
16594,-20.725,-6.7688
16605,-21.311,-6.8687
16617,-20.916,-6.326
16629,-20.52,-5.2157
16641,-19.206,-4.2749
16652,-21.596,-5.0879
16664,-21.328,-4.9008
16676,-20.057,-5.4959
16688,-17.7,-5.889
16699,-18.843,-7.9299
16711,-21.449,-8.2813
16723,-21.774,-7.3376
16734,-23.379,-6.8664
16746,-21.506,-5.0572
16758,-20.993,-8.7798
16770,-20.503,-11.339
16781,-18.941,-8.346
16793,-19.103,-9.0126
16805,-20.485,-10.012
16816,-22.146,-10.276
16828,-22.044,-8.4203
16840,-21.831,-7.2352
16852,-26.299,-8.3016
16863,-23.314,-8.1315
16875,-18.823,-6.7369
16887,-18.984,-5.0867
16898,-21.44,-5.1419
16910,-22.09,-6.1662
16922,-19.923,-7.0683
16934,-17.839,-9.5734
16945,-21.325,-8.6967
16957,-24.088,-5.9777
16969,-19.883,-6.7036
16980,-19.059,-6.9318
16992,-24.953,-7.0251
17004,-18.956,-5.5217
17016,-18.882,-7.432
17027,-19.422,-9.0401
17039,-19.288,-6.5978
17051,-21.969,-10.797
17063,-22.688,-5.2878
17074,-20.02,-5.1411
17086,-21.503,-8.4875
17098,-22.489,-10.64
17109,-20.731,-9.9866
17121,-19.469,-11.072
17133,-21.218,-7.8885
17145,-19.273,-7.485
17156,-19.279,-8.852
17168,-20.559,-11.728
17180,-20.066,-9.7217
17191,-15.896,-7.9495
17203,-16.823,-8.5033
17215,-20.957,-8.3691
17227,-21.203,-5.3416
17238,-22.862,-8.1382
17250,-24.148,-15.16
17262,-20.077,-9.5367
17273,-19.043,-8.4378
17285,-20.785,-9.2353
17297,-21.956,-5.853
17309,-22.576,-5.9918
17320,-24.067,-10.614
17332,-26.287,-9.7729
17344,-25.589,-11.16
17355,-23.142,-12.217
17367,-22.456,-9.8454
17379,-23.774,-6.6518
17391,-22.57,-5.9316
17402,-22.39,-5.7904
17414,-23.878,-7.2972
17426,-22.029,-9.8391
17438,-20.362,-12.122
17449,-22.471,-11.373
17461,-21.869,-7.2925
17473,-23.686,-7.8683
17484,-23.799,-12.235
17496,-22.13,-13.937
17508,-24.966,-10.753
17520,-23.802,-8.1604
17531,-21.135,-7.1792
17543,-19.943,-5.9786
17555,-19.705,-6.4259
17566,-19.677,-9.4707
17578,-22.979,-8.4412
17590,-24.437,-7.4
17602,-23.675,-9.7146
17613,-23.471,-8.6377
17625,-22.837,-10.155
17637,-24.196,-9.3344
17648,-22.424,-9.7539
17660,-21.104,-12.157
17672,-20.715,-11.285
17684,-23.481,-8.0248
17695,-22.432,-7.5462
17707,-19.821,-7.5464
17719,-21.335,-11.099
17730,-22.854,-9.9051
17742,-24.729,-9.8426
17754,-23.785,-11.636
17766,-20.328,-11.123
17777,-20.029,-8.8156
17789,-20.833,-6.7087
17801,-23.95,-6.32
17813,-22.824,-7.2186
17824,-24.009,-9.2876
17836,-23.48,-9.3277
17848,-21.36,-7.7265
17859,-22.977,-8.8786
17871,-22.177,-10.609
17883,-23.026,-8.8927
17895,-22.528,-11.457
17906,-24.306,-6.2141
17918,-26.574,-5.8538
17930,-24.822,-5.698
17941,-25.041,-6.3222
17953,-24.801,-7.4063
17965,-22.877,-6.7471
17977,-24.514,-7.3057
17988,-23.989,-10.933
18000,-24.472,-9.1932
18012,-23.301,-11.994
18023,-24.015,-10.829
18035,-26.21,-9.0524
18047,-26.962,-9.8194
18059,-24.908,-11.69
18070,-21.181,-11.14
18082,-22.702,-7.9394
18094,-20.94,-8.7386
18105,-21.039,-13.214
18117,-24.555,-11.984
18129,-24.494,-8.5487
18141,-23.379,-7.962
18152,-23.578,-6.9177
18164,-25.118,-9.1855
18176,-24.905,-11.064
18188,-24.528,-10.645
18199,-22.449,-10.341
18211,-25.399,-9.6047
18223,-26.216,-8.1513
18234,-25.053,-9.1412
18246,-24.54,-9.7147
18258,-22.281,-7.9219
18270,-20.815,-12.358
18281,-21.9,-8.7873
18293,-23.434,-9.1936
18305,-24.541,-10.302
18316,-25.011,-11.47
18328,-22.956,-11.301
18340,-22.867,-10.477
18352,-22.475,-11.231
18363,-23.623,-11.858
18375,-22.307,-9.7812
18387,-20.538,-10.518
18398,-20.98,-9.6981
18410,-24.331,-8.7007
18422,-20.523,-10.194
18434,-21.729,-9.4645
18445,-23.53,-7.8391
18457,-22.679,-10.024
18469,-22.244,-12.902
18480,-22.587,-8.5033
18492,-23.563,-7.1797
18504,-26.144,-10.245
18516,-25.633,-10.306
18527,-26.97,-10.34
18539,-28.665,-11.4
18551,-24.265,-8.6298
18563,-22.72,-8.7864
18574,-20.847,-10.482
18586,-19.129,-13.19
18598,-21.785,-9.6156
18609,-27.468,-11.224
18621,-26.382,-12.723
18633,-22.895,-9.8008
18645,-22.283,-8.7327
18656,-25.105,-11.02
18668,-24.562,-10.563
18680,-22.566,-10.193
18691,-22.51,-11.451
18703,-22.264,-12.928
18715,-23.053,-8.2119
18727,-22.025,-6.3711
18738,-23.057,-8.9662
18750,-24.658,-13.917
18762,-25.013,-7.8745
18773,-25.23,-6.2579
18785,-26.475,-8.1389
18797,-24.325,-13.008
18809,-24.841,-12.956
18820,-27.552,-9.2663
18832,-23.475,-10.878
18844,-21.706,-12.921
18855,-24.456,-11.577
18867,-26.927,-9.9088
18879,-23.212,-10.481
18891,-24.502,-11.592
18902,-19.558,-10.343
18914,-20.9,-12.214
18926,-22.787,-10.4
18938,-20.926,-9.9933
18949,-22.053,-12.177
18961,-25.28,-9.4143
18973,-22.406,-8.0774
18984,-26.56,-12.941
18996,-22.08,-12.096
19008,-26.866,-11.489
19020,-24.582,-11.381
19031,-23.113,-11.944
19043,-22.363,-11.755
19055,-23.827,-10.039
19066,-23.755,-10.597
19078,-23.566,-12.978
19090,-24.896,-10.846
19102,-28.122,-11.258
19113,-24.315,-10.634
19125,-22.825,-11.554
19137,-25.628,-12.578
19148,-25.413,-9.9807
19160,-27.033,-11.013
19172,-24.227,-12.817
19184,-23.287,-10.173
19195,-22.206,-6.8696
19207,-21.524,-7.786
19219,-21.29,-13.836
19230,-23.933,-14.015
19242,-25.128,-10.777
19254,-24.469,-9.1189
19266,-23.895,-11.735
19277,-22.345,-12.65
19289,-21.261,-11.134
19301,-23.235,-10.161
19313,-24.201,-9.9223
19324,-24.938,-9.0135
19336,-23.652,-8.4154
19348,-21.463,-9.5657
19359,-21.54,-12.386
19371,-25.577,-9.4088
19383,-23.902,-9.5898
19395,-22.003,-11.24
19406,-20.721,-10.559
19418,-22.176,-11.004
19430,-23.627,-11.466
19441,-22.567,-12.935
19453,-23.363,-11.893
19465,-26.112,-9.2884
19477,-22.215,-8.8261
19488,-25.156,-10.685
19500,-23.909,-9.8773
19512,-23.687,-7.6834
19523,-23.463,-6.6929
19535,-26.918,-10.526
19547,-24.816,-7.1098
19559,-25.416,-7.6414
19570,-26.951,-11.194
19582,-25.056,-11.344
19594,-24.876,-12.447
19605,-25.526,-12.815
19617,-22.503,-11.057
19629,-23.156,-11.418
19641,-25.623,-12.059
19652,-25.776,-10.443
19664,-25.578,-8.5993
19676,-25.453,-10.787
19688,-24.488,-11.369
19699,-26.986,-10.543
19711,-23.918,-10.199
19723,-22.17,-9.4666
19734,-21.917,-10.083
19746,-22.897,-7.468
19758,-24.338,-11.298
19770,-27.637,-16.56
19781,-28.144,-15.13
19793,-26.812,-13.067
19805,-24.9,-11.517
19816,-23.711,-11.786
19828,-25.45,-11.299
19840,-27.031,-13.14
19852,-24.265,-13.176
19863,-23.935,-11.014
19875,-24.574,-10.324
19887,-23.04,-10.224
19898,-24.7,-11.239
19910,-25.465,-10.687
19922,-26.058,-10.724
19934,-23.497,-13.227
19945,-23.648,-16.477
19957,-26.205,-13.381
19969,-27.995,-14.654
19980,-26.452,-10.456
19992,-23.821,-9.5167
20004,-23.381,-11.483
20016,-24.722,-11.717
20027,-27.201,-13.534
20039,-28.404,-12.488
20051,-27.649,-12.22
20063,-26.522,-13.382
20074,-25.594,-10.954
20086,-27.748,-13.624
20098,-23.195,-15.032
20109,-23.948,-14.756
20121,-25.631,-11.297
20133,-26.415,-9.5735
20145,-25.393,-12.917
20156,-26.814,-12.913
20168,-26.789,-12.478
20180,-24.348,-13.375
20191,-24.73,-14.929
20203,-24.271,-11.648
20215,-25.805,-11.195
20227,-29.486,-11.783
20238,-28.216,-11.305
20250,-26.145,-11.568
20262,-25.228,-11.939
20273,-27.031,-11.117
20285,-25.572,-9.887
20297,-25.315,-11.342
20309,-25.13,-11.281
20320,-25.001,-8.3329
20332,-27.187,-8.4379
20344,-25.002,-12.386
20355,-22.381,-9.2248
20367,-23.798,-12.872
20379,-26.989,-12.816
20391,-25.544,-12.646
20402,-28.239,-13.134
20414,-29.636,-10.425
20426,-26.931,-11.836
20438,-25.464,-13.684
20449,-25.808,-13.542
20461,-26.021,-15.229
20473,-27.404,-14.54
20484,-26.428,-11.685
20496,-25.667,-11.679
20508,-27.34,-10.771
20520,-29.322,-10.73
20531,-24.608,-10.502
20543,-23.161,-10.124
20555,-25.27,-11.986
20566,-25.569,-11.756
20578,-25.803,-10.868
20590,-25.169,-13.085
20602,-21.511,-12.729
20613,-25.916,-9.3834
20625,-25.961,-10.685
20637,-24.938,-11.793
20648,-25.93,-8.6755
20660,-27.608,-10.192
20672,-27.352,-10.838
20684,-26.797,-14.765
20695,-27.222,-13.473
20707,-25.696,-13.222
20719,-24.851,-13.114
20730,-25.314,-11.797
20742,-23.486,-14.947
20754,-25.318,-12.008
20766,-24.606,-9.7142
20777,-23.852,-8.3757
20789,-24.578,-10.741
20801,-25.424,-15.375
20813,-26.729,-16.749
20824,-25.344,-13.631
20836,-26.555,-13.593
20848,-25.08,-14.094
20859,-27.36,-11.401
20871,-29.877,-9.1068
20883,-28.614,-11.214
20895,-29.518,-14.635
20906,-25.733,-12.989
20918,-24.877,-12.773
20930,-25.114,-11.11
20941,-24.12,-12.788
20953,-25.017,-14.237
20965,-26.907,-12.628
20977,-28.188,-10.689
20988,-27.989,-13.484
21000,-24.881,-12.401
21012,-22.596,-9.9175
21023,-24.048,-9.9676
21035,-27.699,-13.841
21047,-27.16,-16.488
21059,-24.904,-11.722
21070,-24.074,-12.729
21082,-26.572,-17.891
21094,-28.069,-12.651
21105,-29.318,-12.747
21117,-28.309,-12.825
21129,-26.501,-12.696
21141,-28.754,-11.706
21152,-29.302,-10.379
21164,-29.241,-11.375
21176,-30.046,-14.456
21188,-29.255,-14.846
21199,-29.66,-13.537
21211,-27.935,-12.8
21223,-26.096,-11.995
21234,-27.351,-13.587
21246,-26.953,-14.924
21258,-28.444,-12.663
21270,-27.823,-9.4819
21281,-30.522,-8.8757
21293,-27.33,-10.31
21305,-26.35,-13.802
21316,-26.333,-12.676
21328,-27.009,-10.726
21340,-23.535,-10.643
21352,-27.138,-11.785
21363,-29.447,-13.509
21375,-26.281,-15.272
21387,-27.301,-14.345
21398,-29.275,-17.176
21410,-29.244,-16.612
21422,-28.564,-14.674
21434,-29.887,-12.426
21445,-25.586,-12.807
21457,-22.102,-12.331
21469,-23.478,-12.305
21480,-25.583,-10.868
21492,-27.554,-11.332
21504,-26.837,-12.719
21516,-26.366,-13.526
21527,-24.761,-13.512
21539,-24.447,-15.456
21551,-25.468,-17.088
21563,-27.171,-16.564
21574,-26.406,-16.456
21586,-25.896,-16.167
21598,-25.11,-16.01
21609,-23.5,-15.45
21621,-24.369,-18.395
21633,-25.724,-18.849
21645,-22.983,-14.587
21656,-25.178,-12.023
21668,-27.289,-14.094
21680,-27.617,-11.195
21691,-28.515,-12.466
21703,-27.313,-13.86
21715,-27.445,-13.443
21727,-27.852,-15.948
21738,-27.478,-14.237
21750,-22.48,-15.636
21762,-23.835,-13.381
21773,-25.537,-12.622
21785,-25.549,-13.451
21797,-27.308,-12.976
21809,-27.244,-14.622
21820,-27.044,-14.149
21832,-26.12,-16.303
21844,-25.813,-14.586
21855,-26.493,-12.035
21867,-27.249,-14.574
21879,-26.641,-12.302
21891,-27.275,-12.914
21902,-28.717,-14.485
21914,-28.058,-13.494
21926,-26.113,-14.275
21938,-26.117,-13.138
21949,-25.829,-13.24
21961,-25.424,-15.46
21973,-26.861,-12.188
21984,-26.973,-14.471
21996,-26.906,-10.382
22008,-24.75,-10.967
22020,-25.206,-13.981
22031,-25.786,-11.744
22043,-26.637,-15.328
22055,-26.414,-15.427
22066,-27.5,-13.099
22078,-26.966,-13.254
22090,-25.557,-15.338
22102,-26.624,-10.889
22113,-28.183,-11.13
22125,-28.566,-10.204
22137,-26.654,-11.685
22148,-24.365,-10.612
22160,-25.38,-12.127
22172,-28.149,-15.232
22184,-26.549,-14.634
22195,-25.05,-15.395
22207,-24.707,-8.949
22219,-26.201,-9.7949
22230,-27.413,-14.155
22242,-29.774,-13.173
22254,-26.642,-13.735
22266,-26.964,-14.823
22277,-27.631,-15.329
22289,-29.349,-15.5
22301,-27.765,-15.771
22313,-27.632,-14.874
22324,-24.77,-12.589
22336,-26.557,-12.821
22348,-29.401,-13.194
22359,-29.973,-13.19
22371,-31.275,-13.141
22383,-26.819,-14.012
22395,-27.042,-19.14
22406,-28.575,-14.819
22418,-29.545,-14.52
22430,-25.706,-13.937
22441,-24.392,-13.772
22453,-25.41,-13.675
22465,-27.416,-13.588
22477,-26.209,-14.558
22488,-27.687,-15.952
22500,-29.256,-14.11
22512,-27.726,-12.575
22523,-28.372,-11.796
22535,-29.531,-10.114
22547,-28.718,-12.466
22559,-28.894,-13.345
22570,-29.746,-14.471
22582,-30.256,-16.169
22594,-28.191,-16.661
22605,-26.285,-14.064
22617,-27.166,-10.972
22629,-28.757,-14.416
22641,-25.413,-17.263
22652,-24.876,-17.589
22664,-25.849,-16.44
22676,-27.643,-15.238
22688,-28.108,-17.234
22699,-27.325,-16.663
22711,-26.09,-16.742
22723,-26.796,-16.116
22734,-26.399,-14.258
22746,-27.385,-13.328
22758,-31.486,-12.636
22770,-27.912,-11.095
22781,-27.119,-9.5089
22793,-25.005,-11.893
22805,-26.095,-15.245
22816,-27.693,-14.019
22828,-27.181,-13.783
22840,-26.162,-14.979
22852,-26.959,-15.234
22863,-30.241,-16.354
22875,-28.441,-15.423
22887,-25.899,-16.526
22898,-28.137,-11.993
22910,-31.254,-11.82
22922,-30.925,-17.021
22934,-29.053,-13.689
22945,-29.769,-15.139
22957,-26.404,-15.075
22969,-25.571,-12.543
22980,-27.706,-13.809
22992,-28.297,-16.02
23004,-26.583,-15.662
23016,-27.74,-16.728
23027,-28.794,-16.065
23039,-28.375,-14.06
23051,-26.914,-13.233
23063,-25.888,-13.425
23074,-26.609,-13.781
23086,-27.026,-15.772
23098,-27.911,-13.871
23109,-31.182,-14.719
23121,-31.976,-16.629
23133,-29.951,-15.299
23145,-30.766,-14.198
23156,-29.682,-13.986
23168,-26.139,-13.407
23180,-27.408,-13.657
23191,-26.515,-12.125
23203,-26.301,-13.47
23215,-27.84,-15.284
23227,-30.145,-15.69
23238,-27.008,-17.167
23250,-27.33,-14.714
23262,-26.81,-13.694
23273,-27.88,-18.419
23285,-26.882,-17.296
23297,-28.301,-13.329
23309,-28.584,-14.54
23320,-30.471,-13.764
23332,-27.39,-14.731
23344,-26.715,-17.955
23355,-27.576,-16.947
23367,-28.729,-15.206
23379,-30.897,-13.853
23391,-27.14,-13.487
23402,-26.433,-15.778
23414,-28.227,-14.666
23426,-28.695,-14.889
23438,-27.899,-13.72
23449,-28.51,-12.778
23461,-29.255,-11.66
23473,-29.77,-16.566
23484,-28.323,-15.249
23496,-29.72,-14.199
23508,-28.768,-14.005
23520,-31.434,-15.626
23531,-28.62,-16.58
23543,-28.331,-15.288
23555,-31.471,-16.547
23566,-33.14,-16.012
23578,-32.088,-18.09
23590,-28.326,-17.841
23602,-27.228,-10.715
23613,-25.875,-10.485
23625,-25.836,-11.182
23637,-26.054,-16.18
23648,-27.521,-15.249
23660,-26.412,-15.385
23672,-26.492,-15.293
23684,-27.746,-13.22
23695,-29.018,-15.413
23707,-25.456,-16.236
23719,-24.259,-17.281
23730,-27.424,-17.335
23742,-28.3,-15.489
23754,-27.475,-16.106
23766,-26.054,-13.622
23777,-27.652,-12.882
23789,-27.009,-16.137
23801,-27.949,-15.443
23813,-27.47,-13.788
23824,-26.657,-15.001
23836,-26.826,-15.928
23848,-26.427,-15.62
23859,-27.463,-14.225
23871,-28.952,-13.271
23883,-30.83,-11.868
23895,-28.656,-13.077
23906,-26.545,-17.292
23918,-27.149,-17.422
23930,-28.708,-17.185
23941,-30.637,-16.838
23953,-31.594,-15.532
23965,-24.851,-14.796
23977,-26.032,-14.073
23988,-27.063,-14.055
