FFT,Power Spectrum
Frequency[Hz],Level-L[dB],Level-R[dB]
11.719,-20.195,-21.93
23.438,0.82007,-2.6769
35.156,0.86487,-3.9903
46.875,2.3452,5.58
58.594,6.5685,6.9309
70.313,7.0331,5.1461
82.031,5.2015,8.9139
93.75,7.3145,8.78
105.47,9.9188,10.8
117.19,6.4618,10.107
128.91,12.628,10.333
140.63,15.51,16.149
152.34,10.033,16.004
164.06,2.9517,11.993
175.78,6.8654,13.949
187.5,12.495,13.729
199.22,11.905,11.701
210.94,7.8721,14.768
222.66,6.8057,12.316
234.38,9.9242,11.374
246.09,10.29,13.429
257.81,11.145,12.903
269.53,8.9901,14.954
281.25,11.758,15.626
292.97,9.6151,14.291
304.69,3.7823,12.752
316.41,3.5425,11.804
328.13,7.9669,9.4939
339.84,6.1543,11.798
351.56,3.4039,12.458
363.28,6.3253,16.54
375,8.086,16.615
386.72,7.7732,15.529
398.44,7.4834,15.554
410.16,7.372,14.379
421.88,7.2184,16.383
433.59,7.8118,20.23
445.31,7.6584,17.752
457.03,3.9212,11.859
468.75,4.6512,12.319
480.47,5.0503,15.51
492.19,5.24,16.978
503.91,4.2549,17.343
515.63,5.8079,18.307
527.34,5.476,15.975
539.06,3.9318,15.565
550.78,7.7993,14.816
562.5,8.4627,14.788
574.22,7.6764,15.737
585.94,7.8978,14.761
597.66,5.7692,15.225
609.38,5.8562,16.269
621.09,4.9424,18.484
632.81,3.9836,18.288
644.53,-0.71761,16.89
656.25,2.4432,13.939
667.97,5.2971,13.661
679.69,5.2025,14.694
691.41,5.6521,16.341
703.13,4.6124,17.838
714.84,3.1827,15.94
726.56,4.3514,13.202
738.28,4.5568,12.496
750,5.1955,15.614
761.72,5.3155,14.733
773.44,8.0551,15.173
785.16,6.7056,15.312
796.88,2.7518,11.264
808.59,4.9616,13.296
820.31,1.7906,15.546
832.03,5.2207,14.572
843.75,3.4631,13.72
855.47,4.5268,20.14
867.19,8.5506,20.103
878.91,6.5932,17.013
890.63,5.9739,16.828
902.34,3.6531,17.113
914.06,7.447,16.354
925.78,5.147,14.72
937.5,2.8355,13.997
949.22,3.9596,15.376
960.94,3.5174,16.281
972.66,6.2458,13.338
984.38,6.0878,10.758
996.09,4.283,11.906
1007.8,1.4778,14.282
1019.5,5.4994,18.043
1031.3,5.3178,17.32
1043,5.084,18.354
1054.7,5.8876,18.616
1066.4,4.8537,18.639
1078.1,4.555,16.334
1089.8,5.7916,15.613
1101.6,8.2499,15.101
1113.3,7.3132,13.474
1125,4.6225,15.196
1136.7,7.1006,14.652
1148.4,4.9679,12.247
1160.2,3.0227,14.087
1171.9,5.1788,15.463
1183.6,6.053,13.779
1195.3,5.3777,13.48
1207,6.2496,12.312
1218.8,8.1844,13.665
1230.5,5.4111,15.604
1242.2,0.32401,17.677
1253.9,4.8917,15.696
1265.6,3.2216,13.329
1277.3,4.7168,11.412
1289.1,5.9218,13.976
1300.8,4.3744,14.943
1312.5,2.8733,14.886
1324.2,4.2553,16.797
1335.9,4.2848,16.044
1347.7,5.0207,11.746
1359.4,4.4994,11.802
1371.1,4.4338,12.719
1382.8,5.0202,11.763
1394.5,5.4252,12.765
1406.3,4.7015,13.384
1418,4.4151,15.916
1429.7,2.8272,16.376
1441.4,1.8049,11.864
1453.1,1.6276,13.075
1464.8,3.6771,14.418
1476.6,2.3275,16.434
1488.3,4.7875,15.193
1500,6.5053,13.31
1511.7,4.5063,12.984
1523.4,1.1908,13.381
1535.2,1.1047,13.485
1546.9,2.9458,9.8664
1558.6,3.4896,6.671
1570.3,2.6996,11.927
1582,5.0406,13.169
1593.8,4.5337,12.263
1605.5,5.2167,15.115
1617.2,5.1689,12.223
1628.9,0.93705,11.124
1640.6,2.2826,13.032
1652.3,4.0844,13.542
1664.1,2.9965,13.874
1675.8,1.4546,15.44
1687.5,2.9076,14.226
1699.2,3.123,12.308
1710.9,2.2852,12.578
1722.7,2.6093,15.248
1734.4,4.4414,14.244
1746.1,2.59,13.454
1757.8,0.56787,12.701
1769.5,-0.73797,14.677
1781.3,0.62137,12.21
1793,5.7304,10.6
1804.7,6.5939,11.687
1816.4,3.14,14.262
1828.1,2.2726,16.255
1839.8,1.9294,17.175
1851.6,2.5959,15.248
1863.3,4.1039,13.429
1875,3.5299,11.303
1886.7,6.2251,10.188
1898.4,5.311,10.307
1910.2,1.8571,12.664
1921.9,1.6925,12.656
1933.6,2.4976,13.039
1945.3,2.3747,13.093
1957,0.42929,14.927
1968.8,-0.72327,13.67
1980.5,0.95573,7.6946
1992.2,1.7919,12.296
2003.9,2.2759,12.913
2015.6,1.0958,12.89
2027.3,-0.19164,13.893
2039.1,1.6697,15.046
2050.8,-0.33164,12.606
2062.5,0.47574,11.382
2074.2,1.6384,12.758
2085.9,1.5261,15.308
2097.7,1.4802,12.961
2109.4,2.3966,11.402
2121.1,2.0063,13.314
2132.8,1.546,13.226
2144.5,2.0603,14.301
2156.3,1.8131,12.254
2168,2.7125,12.876
2179.7,1.3985,13.269
2191.4,3.5689,13.483
2203.1,0.57259,11.701
2214.8,0.75592,8.9554
2226.6,3.9085,11.269
2238.3,2.8795,12.685
2250,1.9491,11.239
2261.7,4.8847,14.171
2273.4,2.0226,14.223
2285.2,0.43743,12.41
2296.9,1.3286,13.01
2308.6,0.78719,9.9488
2320.3,2.3608,11.511
2332,3.4133,13.14
2343.8,2.5485,12.03
2355.5,1.0141,9.2348
2367.2,0.93592,12.106
2378.9,2.8389,12.985
2390.6,0.8814,13.524
2402.3,1.3065,12.532
2414.1,0.20492,9.7091
2425.8,0.023128,8.8178
2437.5,-0.46888,12.797
2449.2,2.5296,14.811
2460.9,1.9865,15.326
2472.7,2.1783,14.177
2484.4,2.9503,10.745
2496.1,1.4318,11.877
2507.8,0.20187,10.491
2519.5,1.4595,11.557
2531.3,2.5716,11.412
2543,-0.12142,12.324
2554.7,-0.61885,13.196
2566.4,2.0591,13.205
2578.1,0.6441,13.804
2589.8,1.2451,14.192
2601.6,1.5531,14.097
2613.3,0.026929,14.018
2625,-1.6475,11.076
2636.7,-0.16114,8.9891
2648.4,2.2298,9.4621
2660.2,4.3975,8.4561
2671.9,3.1021,14.121
2683.6,0.91222,13.142
2695.3,1.9748,10.088
2707,0.88753,8.9349
2718.8,0.41659,9.8137
2730.5,-0.73706,13.435
2742.2,-1.3918,10.735
2753.9,1.8073,11.274
2765.6,0.98882,13.098
2777.3,-0.80983,11.476
2789.1,0.00027002,13.109
2800.8,0.10475,11.378
2812.5,1.7089,11.14
2824.2,3.5218,10.136
2835.9,1.5967,8.4711
2847.7,2.7755,11.182
2859.4,1.0946,9.8943
2871.1,-1.2315,12.429
2882.8,0.35321,12.909
2894.5,1.3569,11.805
2906.3,-0.79063,9.7329
2918,-1.8062,9.6387
2929.7,-4.146,11.12
2941.4,-1.6461,14.246
2953.1,-0.78563,11.779
2964.8,-2.7383,11.617
2976.6,-2.4802,10.727
2988.3,-1.4458,9.772
3000,-2.099,5.5404
3011.7,-0.20238,8.2256
3023.4,-0.57912,11.729
3035.2,-1.5365,6.4099
3046.9,-1.0811,11.036
3058.6,-0.034827,12.177
3070.3,0.8148,10.674
3082,-0.74522,10.686
3093.8,-0.97557,9.498
3105.5,0.19835,8.1341
3117.2,-0.47758,8.9097
3128.9,0.4264,8.1091
3140.6,-0.6323,8.0764
3152.3,-1.0834,7.2979
3164.1,-0.83608,8.6058
3175.8,-2.4174,11.454
3187.5,-2.0734,9.8544
3199.2,0.027598,8.6986
3210.9,-0.67194,11.369
3222.7,-0.84859,12.604
3234.4,-0.84032,13.069
3246.1,-1.8472,13.399
3257.8,-1.196,12.651
3269.5,-1.1451,11.871
3281.3,0.3395,10.837
3293,-0.23937,11.112
3304.7,-4.7105,10.192
3316.4,-3.6013,7.4445
3328.1,-2.8328,9.0053
3339.8,-1.6619,8.0362
3351.6,-1.8723,10.847
3363.3,-1.3194,12.704
3375,-1.3595,11.427
3386.7,-0.38814,10.934
3398.4,0.22701,11.218
3410.2,-3.1784,12.198
3421.9,-5.9031,11.355
3433.6,-5.0924,11.089
3445.3,-2.9747,10.104
3457,0.17198,7.4511
3468.8,-0.34119,10.014
3480.5,-0.46993,9.6439
3492.2,-0.13196,8.7452
3503.9,-3.0165,7.8641
3515.6,0.28148,9.0003
3527.3,1.1007,10.632
3539.1,-0.086156,8.8562
3550.8,0.19786,7.7012
3562.5,-2.3617,10.689
3574.2,-2.1155,9.9752
3585.9,-0.61057,8.7946
3597.7,-0.39709,9.7276
3609.4,-2.8986,10.712
3621.1,-1.7619,7.5549
3632.8,-3.9498,8.2157
3644.5,-0.39239,8.6939
3656.3,-1.0906,6.2881
3668,4.7165,7.4002
3679.7,18.228,11.935
3691.4,19.452,13.163
3703.1,8.6604,11.201
3714.8,-5.7591,12.527
3726.6,-4.4614,13.532
3738.3,-2.9082,9.7761
3750,-1.9052,7.498
3761.7,-0.76594,9.7079
3773.4,0.11118,9.9417
3785.2,0.50826,10.614
3796.9,0.6989,9.3921
3808.6,1.228,9.7581
3820.3,0.30241,11.054
3832,-0.0046222,8.7772
3843.8,-2.0242,8.6142
3855.5,-3.2512,8.7272
3867.2,-3.1091,11.476
3878.9,-2.6013,11.837
3890.6,-3.795,9.639
3902.3,-3.4513,11.274
3914.1,-1.6408,10.571
3925.8,-2.7726,11.676
3937.5,1.0086,10.955
3949.2,-0.22981,12.196
3960.9,-0.85755,12.139
3972.7,-3.767,11.912
3984.4,-2.7884,9.9663
3996.1,-2.0702,7.6104
4007.8,-2.833,7.2716
4019.5,-3.1632,8.2652
4031.3,0.42609,8.2251
4043,-1.3288,9.0697
4054.7,-1.7347,10.883
4066.4,-1.6686,11.138
4078.1,-2.3624,7.6467
4089.8,-0.56594,7.5111
4101.6,-2.1303,10.173
4113.3,-4.5344,8.9007
4125,-1.812,11.219
4136.7,-3.6496,11.372
4148.4,-2.6138,8.9016
4160.2,-3.3549,7.2025
4171.9,-1.299,9.5809
4183.6,-2.2115,5.8387
4195.3,-3.9662,10.764
4207,-2.9816,11.282
4218.8,-1.7505,8.9224
4230.5,-1.4056,9.8371
4242.2,-2.7423,9.1583
4253.9,-5.3977,8.7515
4265.6,-3.3396,7.9492
4277.3,-1.223,5.2176
4289.1,-3.3675,5.7962
4300.8,-4.1531,5.975
4312.5,-3.2052,8.9987
4324.2,-5.0221,11.308
4335.9,-3.4325,10.773
4347.7,-4.4245,9.6706
4359.4,-2.2548,7.7354
4371.1,-2.3145,6.9879
4382.8,-4.4769,6.6474
4394.5,-6.3392,5.1438
4406.3,-5.5387,7.7008
4418,-4.3417,8.2248
4429.7,-2.2948,5.661
4441.4,-2.0657,8.0516
4453.1,-3.9137,9.19
4464.8,-2.2369,10.578
4476.6,-3.6378,10.175
4488.3,-2.7795,7.8921
4500,-1.4996,7.9629
4511.7,-4.5019,9.9836
4523.4,-4.7541,8.5791
4535.2,-3.4884,8.8628
4546.9,-4.3743,11.825
4558.6,-3.2591,9.016
4570.3,-2.0359,6.9558
4582,-0.47423,4.197
4593.8,-4.6107,6.7626
4605.5,-5.571,7.2088
4617.2,-4.3369,6.5094
4628.9,-4.8154,9.5335
4640.6,-4.5529,10.122
4652.3,-5.7272,5.5919
4664.1,-4.8803,6.9408
4675.8,-3.5227,4.4227
4687.5,-3.8709,9.1435
4699.2,-1.6913,9.3849
4710.9,-1.6715,6.5045
4722.7,-3.6657,6.7337
4734.4,-1.9258,10.453
4746.1,-1.9405,9.9518
4757.8,-1.38,9.6311
4769.5,-0.1153,9.1967
4781.3,-1.4703,6.8091
4793,-3.305,8.7176
4804.7,-1.9747,8.0013
4816.4,-3.1917,6.2214
4828.1,-4.3856,5.7096
4839.8,-6.2951,5.6865
4851.6,-4.6425,4.5566
4863.3,-3.0317,6.5217
4875,-1.7058,6.6402
4886.7,-4.0967,9.2232
4898.4,-4.4738,9.8701
4910.2,-6.3107,8.4165
4921.9,-6.3914,5.4901
4933.6,-1.0678,5.7672
4945.3,-1.1001,6.8828
4957,-3.0982,7.8099
4968.8,-3.9094,9.9753
4980.5,-3.627,7.427
4992.2,-4.8648,6.9627
5003.9,-3.5394,7.1375
5015.6,-5.7786,8.1117
5027.3,-4.923,4.7185
5039.1,-4.4982,8.4975
5050.8,-4.3267,9.3601
5062.5,-3.8029,9.1997
5074.2,-2.1753,6.1281
5085.9,-0.61424,4.8033
5097.7,-3.686,7.3938
5109.4,-6.2938,7.0783
5121.1,-6.9949,9.657
5132.8,-3.9308,9.2814
5144.5,-3.0296,8.4434
5156.3,-3.5418,9.923
5168,-3.6769,9.3736
5179.7,-3.358,6.5244
5191.4,-3.8246,7.202
5203.1,-2.0399,8.1364
5214.8,-1.7859,7.7413
5226.6,-3.8725,3.8282
5238.3,-3.317,4.2051
5250,-2.4992,6.0939
5261.7,-3.8327,3.1287
5273.4,-3.1146,6.4743
5285.2,-5.2735,9.0269
5296.9,-7.2951,7.8714
5308.6,-6.1631,4.9524
5320.3,-3.6243,5.6916
5332,-1.8562,6.4167
5343.8,-3.7753,8.9137
5355.5,-3.6206,8.5589
5367.2,-0.30508,2.6101
5378.9,-6.6757,8.5942
5390.6,-3.9585,6.4228
5402.3,-4.0917,6.5343
5414.1,-2.8128,7.4459
5425.8,-1.6045,7.1921
5437.5,-7.0375,6.2025
5449.2,-5.1542,6.5819
5460.9,-6.5493,4.0339
5472.7,-4.9661,3.6825
5484.4,-2.9112,4.5452
5496.1,-5.6517,7.5309
5507.8,-5.3455,8.2241
5519.5,-4.1966,9.2024
5531.3,-2.2404,9.8175
5543,-3.7026,9.2819
5554.7,-6.0574,7.1399
5566.4,-4.1507,7.0911
5578.1,-0.72464,6.3889
5589.8,-4.2185,6.2993
5601.6,-3.4714,6.9836
5613.3,-3.5703,6.432
5625,-6.4528,6.2092
5636.7,-5.6655,6.5859
5648.4,-4.9341,6.4096
5660.2,-3.9809,5.6406
5671.9,-5.2646,1.9842
5683.6,-4.4731,7.7092
5695.3,-2.7786,9.5373
5707,-4.3457,6.237
5718.8,-2.7728,8.3632
5730.5,-4.5638,8.6687
5742.2,-5.8779,8.2057
5753.9,-5.3513,5.6195
5765.6,-8.1782,3.1434
5777.3,-6.9639,4.7698
5789.1,-5.314,4.9105
5800.8,-5.912,4.9646
5812.5,-4.9183,4.2361
5824.2,-3.2555,5.7741
5835.9,-4.5568,5.9942
5847.7,-6.6624,8.0173
5859.4,-10.853,5.147
5871.1,-6.7798,5.8006
5882.8,-3.6978,7.6183
5894.5,-3.2232,6.5783
5906.3,-5.9842,4.892
5918,-5.3123,5.1088
5929.7,-4.6087,2.74
5941.4,-4.0676,7.3521
5953.1,-4.8401,6.6294
5964.8,-10.267,7.2403
5976.6,-9.2356,6.8939
5988.3,-7.8503,7.5203
6000,-6.1107,6.7642
6011.7,-5.5842,6.679
6023.4,-7.3588,7.9795
6035.2,-5.9096,8.4423
6046.9,-2.3485,5.8678
6058.6,-4.7373,7.0604
6070.3,-6.6941,8.0478
6082,-9.4197,6.1993
6093.8,-6.4334,5.9997
6105.5,-3.197,3.2663
6117.2,-3.8711,6.1355
6128.9,-6.6196,6.7343
6140.6,-5.9913,8.2848
6152.3,-8.0798,6.7791
6164.1,-6.6965,6.2758
6175.8,-4.9394,6.368
6187.5,-4.179,7.2617
6199.2,-4.9752,8.7376
6210.9,-5.7958,6.0212
6222.7,-5.2646,3.1216
6234.4,-8.0542,4.5727
6246.1,-9.099,7.1769
6257.8,-7.0373,7.2598
6269.5,-4.7467,5.4053
6281.3,-5.1868,4.6447
6293,-6.6633,3.3
6304.7,-6.461,3.3022
6316.4,-3.7463,4.4338
6328.1,-5.7057,5.2913
6339.8,-8.4735,4.5004
6351.6,-8.0244,4.0592
6363.3,-4.0347,5.4576
6375,-5.719,5.7018
6386.7,-9.6053,6.9536
6398.4,-7.2605,3.6685
6410.2,-8.45,2.6474
6421.9,-5.6609,4.6507
6433.6,-1.2529,6.5726
6445.3,-4.5884,4.7735
6457,-7.6347,7.7382
6468.8,-7.3495,8.3206
6480.5,-5.2797,6.0529
6492.2,-7.5705,4.2924
6503.9,-9.0184,4.32
6515.6,-7.1782,4.7862
6527.3,-5.0708,4.8002
6539.1,-4.3568,5.4927
6550.8,-6.5524,3.7401
6562.5,-4.9953,5.7546
6574.2,-5.1557,6.552
6585.9,-4.1848,6.9957
6597.7,-4.4252,7.5948
6609.4,-6.1197,1.5458
6621.1,-9.0533,3.6291
6632.8,-9.7063,4.2475
6644.5,-8.8168,3.104
6656.3,-5.2333,1.4021
6668,-5.5361,2.4015
6679.7,-8.6781,6.7219
6691.4,-7.6563,7.8943
6703.1,-6.8224,5.2798
6714.8,-5.2028,6.7712
6726.6,-4.389,8.9732
6738.3,-7.7201,8.5088
6750,-7.7124,3.5802
6761.7,-7.2211,4.3721
6773.4,-6.2465,2.5375
6785.2,-4.8415,6.0542
6796.9,-6.4499,5.5747
6808.6,-7.0208,6.9121
6820.3,-5.8824,7.0278
6832,-7.6788,5.3764
6843.8,-10.268,4.4549
6855.5,-8.9433,6.0769
6867.2,-3.128,5.2352
6878.9,-4.63,1.9587
6890.6,-7.8702,0.38571
6902.3,-9.2833,3.1318
6914.1,-8.2072,5.5035
6925.8,-6.8179,3.3965
6937.5,-7.2291,1.1693
6949.2,-7.5273,1.9959
6960.9,-6.389,5.9449
6972.7,-7.5652,7.5308
6984.4,-8.479,2.9018
6996.1,-8.0051,5.0768
7007.8,-8.382,4.3936
7019.5,-8.0554,6.9045
7031.3,-4.4702,6.4299
7043,-4.6038,1.7717
7054.7,-6.2323,4.0885
7066.4,-6.1936,3.4105
7078.1,-8.5491,1.6885
7089.8,-11.362,3.5657
7101.6,-8.8658,2.3488
7113.3,-9.1737,1.7999
7125,-8.9382,3.0457
7136.7,-7.3302,3.7809
7148.4,-6.7894,3.2734
7160.2,-3.937,4.8707
7171.9,-7.4363,6.2452
7183.6,-8.6941,1.6956
7195.3,-9.2486,2.8052
7207,-9.805,4.8828
7218.8,-12.098,4.1591
7230.5,-9.8842,3.3749
7242.2,-7.1822,5.0198
7253.9,-6.3472,7.2249
7265.6,-6.283,6.0424
7277.3,-7.6991,4.5131
7289.1,-10.352,3.9326
7300.8,-9.7471,4.7423
7312.5,-8.3711,3.5461
7324.2,-10.682,1.9927
7335.9,-8.2166,5.1769
7347.7,-7.6779,6.7162
7359.4,-4.1848,4.2715
7371.1,-4.0857,2.3131
7382.8,-5.4453,1.8618
7394.5,-4.8597,3.2118
7406.3,-3.9345,7.5179
7418,-6.9242,6.7458
7429.7,-8.3861,5.8423
7441.4,-8.8949,4.0041
7453.1,-9.18,3.9319
7464.8,-8.836,3.8036
7476.6,-8.9739,2.4202
7488.3,-10.849,0.28014
7500,-7.7414,1.9273
7511.7,-7.8115,2.6681
7523.4,-6.9576,3.6323
7535.2,-6.8981,5.4955
7546.9,-7.1711,3.6264
7558.6,-7.3516,5.3379
7570.3,-7.8271,3.4821
7582,-8.0565,6.376
7593.8,-7.146,7.0878
7605.5,-7.4271,5.375
7617.2,-10.395,3.1066
7628.9,-11.373,1.1358
7640.6,-9.7413,1.0352
7652.3,-9.273,2.821
7664.1,-9.7187,5.729
7675.8,-6.683,7.0741
7687.5,-8.4632,5.7318
7699.2,-6.3332,3.5705
7710.9,-5.0866,2.226
7722.7,-9.6076,0.32963
7734.4,-10.327,4.0844
7746.1,-10.165,5.8873
7757.8,-8.9574,2.9625
7769.5,-7.4602,1.6683
7781.3,-6.1419,2.718
7793,-9.0273,5.6424
7804.7,-6.598,6.6625
7816.4,-5.5169,6.0415
7828.1,-5.5306,5.714
7839.8,-9.13,5.1323
7851.6,-8.7281,2.4122
7863.3,-9.6891,1.5261
7875,-7.6379,0.73047
7886.7,-10.521,2.8364
7898.4,-11.359,0.17566
7910.2,-10.33,4.378
7921.9,-8.9432,5.1607
7933.6,-6.7529,5.6322
7945.3,-7.5627,4.8311
7957,-9.3598,4.4617
7968.8,-10.09,6.539
7980.5,-7.5435,6.3601
7992.2,-8.6137,4.7381
8003.9,-10.35,4.2061
8015.6,-11.853,3.8264
8027.3,-13.329,2.7177
8039.1,-10.725,2.1149
8050.8,-7.0075,3.1265
8062.5,-7.4463,1.7399
8074.2,-9.5118,2.1254
8085.9,-9.3695,2.4545
8097.7,-7.3218,4.4427
8109.4,-10.261,2.9015
8121.1,-9.8961,1.9274
8132.8,-8.7114,2.0893
8144.5,-7.7584,2.3143
8156.3,-5.2153,1.9116
8168,-8.0887,3.0519
8179.7,-13.811,0.28423
8191.4,-8.0305,2.9783
8203.1,-10.044,3.2307
8214.8,-9.8603,0.064802
8226.6,-8.303,3.9461
8238.3,-10.027,5.2835
8250,-8.6969,4.8389
8261.7,-8.9446,0.050762
8273.4,-9.5541,3.5422
8285.2,-11.797,2.5064
8296.9,-9.1968,1.5581
8308.6,-10.274,2.8877
8320.3,-7.2252,2.4213
8332,-7.811,4.3784
8343.8,-7.4339,4.6018
8355.5,-7.589,3.0008
8367.2,-7.2721,3.3671
8378.9,-8.0978,2.241
8390.6,-9.736,1.072
8402.3,-8.1803,0.66956
8414.1,-9.4381,1.2078
8425.8,-10.447,2.6928
8437.5,-15.071,4.5733
8449.2,-13.995,1.6946
8460.9,-8.6597,1.6085
8472.7,-10.237,3.0192
8484.4,-8.9643,2.3899
8496.1,-10.635,2.8087
8507.8,-11.043,1.3506
8519.5,-8.1912,1.2274
8531.3,-9.8374,2.4052
8543,-11.983,2.3348
8554.7,-7.5902,1.8399
8566.4,-7.1056,3.4359
8578.1,-9.3328,3.1768
8589.8,-9.6856,3.2371
8601.6,-11.304,2.0155
8613.3,-11.832,0.20965
8625,-10.471,-1.4148
8636.7,-10.603,0.42748
8648.4,-10.221,-0.068824
8660.2,-9.4276,-0.75813
8671.9,-7.7092,0.66168
8683.6,-10.389,3.8684
8695.3,-13.584,1.994
8707,-11.89,1.5252
8718.8,-8.7812,4.4775
8730.5,-7.762,4.9267
8742.2,-7.3369,2.926
8753.9,-6.2214,-0.77583
8765.6,-8.234,2.6301
8777.3,-10.802,4.0504
8789.1,-10.942,5.3082
8800.8,-11.857,3.1754
8812.5,-12.67,0.59261
8824.2,-13.317,3.1484
8835.9,-10.287,5.4208
8847.7,-8.9138,3.7513
8859.4,-7.6739,0.8505
8871.1,-8.3099,2.3755
8882.8,-9.6522,1.0448
8894.5,-10.398,1.5953
8906.3,-8.3784,1.2299
8918,-7.571,-1.6476
8929.7,-8.1525,-0.058948
8941.4,-10.806,1.1041
8953.1,-11.107,5.178
8964.8,-8.351,3.6732
8976.6,-5.5944,2.9034
8988.3,-7.4146,3.8285
9000,-8.4273,-2.8284
9011.7,-12.84,2.7185
9023.4,-11.67,2.4028
9035.2,-9.1735,2.939
9046.9,-9.0413,3.8371
9058.6,-9.4055,1.2975
9070.3,-12.952,1.5258
9082,-11.774,5.239
9093.8,-10.558,5.7884
9105.5,-12.054,3.1456
9117.2,-12.774,-1.36
9128.9,-10.208,0.10556
9140.6,-9.4154,2.9209
9152.3,-9.3451,1.469
9164.1,-7.6915,0.62818
9175.8,-9.1075,0.4634
9187.5,-11.379,3.4125
9199.2,-13.26,4.1458
9210.9,-14.76,4.0758
9222.7,-9.2534,-1.6811
9234.4,-10.397,-1.1165
9246.1,-10.158,-0.86045
9257.8,-8.6796,1.4613
9269.5,-12.036,-1.6743
9281.3,-10.931,0.038646
9293,-9.6416,1.6256
9304.7,-7.8546,-0.64449
9316.4,-9.7797,0.74978
9328.1,-8.1146,2.0391
9339.8,-10.073,1.1864
9351.6,-9.8738,0.19503
9363.3,-10.723,1.1678
9375,-12.316,4.2053
9386.7,-13.267,3.8999
9398.4,-10.039,-0.94287
9410.2,-9.5267,2.954
9421.9,-9.4819,1.6072
9433.6,-11.673,-0.73765
9445.3,-11.241,2.3085
9457,-9.5637,2.5717
9468.8,-7.572,1.626
9480.5,-8.2284,0.70038
9492.2,-10.64,-1.4643
9503.9,-9.7982,-1.2446
9515.6,-11.78,0.53725
9527.3,-10.624,1.1785
9539.1,-11.112,0.91462
9550.8,-12.275,1.098
9562.5,-10.674,2.4969
9574.2,-7.3414,2.2253
9585.9,-10.316,0.95717
9597.7,-12.902,1.5902
9609.4,-12.333,3.0503
9621.1,-13.241,2.6899
9632.8,-12.356,1.5718
9644.5,-10.311,0.42499
9656.3,-9.6008,0.84769
9668,-11.144,0.64979
9679.7,-10.854,1.1753
9691.4,-13.838,-0.62317
9703.1,-11.428,-1.6186
9714.8,-15.04,-0.6853
9726.6,-12.907,1.5697
9738.3,-12.941,0.27354
9750,-12.261,-2.0802
9761.7,-13.189,1.5129
9773.4,-13.668,2.5689
9785.2,-13.421,0.35491
9796.9,-13.166,-0.10297
9808.6,-11.935,-0.35299
9820.3,-9.9023,0.16018
9832,-14.491,0.50402
9843.8,-11.577,2.117
9855.5,-13.004,2.0575
9867.2,-10.874,-0.062172
9878.9,-10.599,-2.3451
9890.6,-12.259,-1.661
9902.3,-13.398,-0.61031
9914.1,-14.093,-1.611
9925.8,-11.807,1.7382
9937.5,-9.2646,2.7571
9949.2,-10.528,-1.2157
9960.9,-9.8875,1.1755
9972.7,-13.169,3.2382
9984.4,-15.392,-0.62696
9996.1,-11.531,1.8745
10008,-10.875,1.3993
10020,-14.096,0.92396
10031,-14.016,1.7841
10043,-14.703,0.8396
10055,-12.033,0.51018
10066,-12.318,0.94977
10078,-10.26,0.26048
10090,-10.477,0.84959
10102,-13.597,-0.8493
10113,-15.294,0.76959
10125,-14.639,0.64066
10137,-13.804,-0.58106
10148,-12.523,-3.1606
10160,-12.139,0.55893
10172,-14.154,-0.28606
10184,-13.799,0.027405
10195,-12.469,2.9717
10207,-13.325,2.3364
10219,-13.041,-1.7737
10230,-12.722,-0.65869
10242,-15.275,-0.31222
10254,-10.575,0.048527
10266,-9.3858,0.39027
10277,-10.804,-1.7837
10289,-10.314,-1.2824
10301,-13.109,-0.99274
10313,-13.934,-0.51259
10324,-9.4163,1.7532
10336,-9.6848,2.3131
10348,-13.018,2.4081
10359,-14.759,-1.0673
10371,-12.023,-3.156
10383,-11.215,-3.8763
10395,-9.5961,1.9648
10406,-9.3762,1.8543
10418,-11.846,0.11079
10430,-14.011,1.4386
10441,-12.673,0.62577
10453,-11.726,-2.7113
10465,-11.911,-3.2782
10477,-9.3198,0.41969
10488,-10.26,-2.5404
10500,-13.784,-2.7858
10512,-13.173,-1.3325
10523,-11.169,0.60215
10535,-9.8869,0.76983
10547,-13.689,0.68791
10559,-13.202,-0.14988
10570,-13.2,-1.7604
10582,-13.278,-1.1853
10594,-11.734,0.55203
10605,-12.753,1.3457
10617,-11.781,-0.25212
10629,-10.144,-0.2397
10641,-9.6728,0.91422
10652,-10.478,1.8368
10664,-11.738,2.2354
10676,-12.544,0.69278
10688,-11.763,-0.10578
10699,-15.287,-1.8493
10711,-12.122,0.77596
10723,-11.187,1.2367
10734,-10.396,-3.7787
10746,-10.698,0.43137
10758,-10.308,1.604
10770,-9.9284,0.60361
10781,-11.218,-0.033724
10793,-13.566,-0.50809
10805,-12.378,1.4589
10816,-13.918,0.39636
10828,-13.158,-0.93805
10840,-10.608,-2.4367
10852,-11.168,-1.2954
10863,-12.607,1.4526
10875,-11.35,1.5405
10887,-11.204,1.9802
10898,-11.45,-0.059699
10910,-13.397,-3.6721
10922,-14.492,0.43182
10934,-11.322,2.1418
10945,-9.4241,0.14076
10957,-10.169,0.098867
10969,-14.205,-0.20821
10980,-15.72,-2.2141
10992,-14.584,-2.3151
11004,-13.945,-0.61329
11016,-13.982,0.20548
11027,-10.864,-0.28092
11039,-13.055,1.6867
11051,-9.7243,1.864
11063,-8.7092,-3.0538
11074,-12.931,1.5463
11086,-11.383,-0.61437
11098,-12.828,0.35568
11109,-16.879,0.018026
11121,-13.762,-3.3119
11133,-11.628,-1.0951
11145,-10.911,3.5844
11156,-13.016,2.5373
11168,-10.644,0.59622
11180,-12.983,-0.80973
11191,-10.829,-1.8018
11203,-11,-3.9518
11215,-12.213,-0.88286
11227,-12.722,0.065971
11238,-14.384,-0.82017
11250,-12.533,-1.8458
11262,-14.414,-0.0087737
11273,-13.986,2.6783
11285,-12.39,2.138
11297,-12.276,1.4581
11309,-11.651,-0.17848
11320,-10.328,-1.998
11332,-12.142,-1.7661
11344,-12.893,-2.3952
11355,-13.741,-0.86118
11367,-11.231,-0.57947
11379,-9.9735,0.15893
11391,-10.21,-1.8999
11402,-12.702,-3.3964
11414,-13.992,-1.2667
11426,-14.235,0.89238
11438,-14.576,0.81334
11449,-13.381,0.40778
11461,-13.733,0.64394
11473,-14.025,2.8095
11484,-13.685,1.8094
11496,-13.999,1.9538
11508,-11.376,1.3004
11520,-10.745,-2.3212
11531,-11.484,-5.8471
11543,-11.588,-3.4814
11555,-13.131,-2.995
11566,-11.75,-3.0911
11578,-13.776,-2.454
11590,-13.73,-3.8546
11602,-14.355,-5.7614
11613,-13.08,-4.3628
11625,-14.54,-2.0456
11637,-11.408,-1.0555
11648,-9.3257,-2.0869
11660,-10.323,-5.4829
11672,-9.7381,-2.5807
11684,-12.155,-3.1905
11695,-12.068,-2.0779
11707,-13.476,-2.7496
11719,-15.065,-0.53149
11730,-16.016,-4.5435
11742,-16.216,-3.1613
11754,-15.484,-1.5604
11766,-12.755,0.36327
11777,-12.076,0.82078
11789,-13.027,0.74348
11801,-9.5207,1.9585
11813,-10.789,1.3482
11824,-14.429,-2.9189
11836,-12.438,-0.7527
11848,-13.398,-1.591
11859,-11.903,-0.22374
11871,-14.959,1.4945
11883,-12.982,-5.6293
11895,-11.56,-2.1622
11906,-13.244,-4.0632
11918,-14.778,-3.4419
11930,-14.266,-4.5563
11941,-12.973,-1.5867
11953,-16.048,-1.4456
11965,-14.33,-1.2908
11977,-13.104,-0.45284
11988,-13.931,-0.94728
12000,-16.437,-0.74615
12012,-13.084,0.12021
12023,-14.188,-4.8991
12035,-11.955,-4.6185
12047,-10.098,-3.6575
12059,-10.964,-1.25
12070,-11.466,-1.6469
12082,-11.953,-2.9475
12094,-14.66,-0.21937
12105,-13.873,-1.1203
12117,-12.46,1.8679
12129,-10.771,1.0088
12141,-11.71,-1.3484
12152,-14.504,-0.11666
12164,-15.149,-1.4512
12176,-14.428,-0.50161
12188,-12.305,-2.0634
12199,-14.342,-4.3014
12211,-14.959,-1.5266
12223,-14.299,-1.8724
12234,-12.33,-0.50735
12246,-10.481,1.1857
12258,-16.501,-0.84286
12270,-13.305,-1.905
12281,-12.113,-1.5569
12293,-10.739,0.025431
12305,-11.245,-0.16644
12316,-14.097,-0.90725
12328,-14.744,-1.1749
12340,-11.565,-2.4247
12352,-10.365,-1.4391
12363,-9.2509,-1.0198
12375,-10.552,-1.2199
12387,-15.145,-0.97757
12398,-16.519,-1.9193
12410,-14.939,-1.6936
12422,-11.866,-3.7548
12434,-10.724,0.4697
12445,-15.543,-0.85792
12457,-13.56,-1.023
12469,-13.853,-1.8159
12480,-14.291,-2.9381
12492,-14.475,-3.3204
12504,-16.353,-3.1715
12516,-13.706,-2.823
12527,-13.948,-1.3297
12539,-12.911,-1.0131
12551,-11.656,-2.9921
12563,-12.859,-2.2495
12574,-14.232,-1.3944
12586,-14.617,-1.9265
12598,-14.023,-1.4111
12609,-14.524,-6.0699
12621,-14.729,-2.5077
12633,-13.483,-2.0646
12645,-13.87,-5.0826
12656,-11.861,-1.3831
12668,-11.117,-0.84445
12680,-14.013,-2.2113
12691,-13.785,-3.0153
12703,-11.277,-2.4344
12715,-14.543,-3.193
12727,-13.999,-4.7824
12738,-10.556,-4.5849
12750,-13.586,-0.41958
12762,-13.942,-0.97222
12773,-13.965,-0.8228
12785,-13.535,-4.038
12797,-15.25,-5.2418
12809,-14.868,-5.6369
12820,-13.736,-2.9013
12832,-15.38,-1.4267
12844,-12.859,-3.756
12855,-14.094,-2.1345
12867,-14.98,-1.0254
12879,-14.892,-1.3628
12891,-13.852,-1.5855
12902,-13.834,0.98634
12914,-12.657,0.013024
12926,-12.1,-0.27665
12938,-12.534,-1.964
12949,-13.862,-0.36704
12961,-12.861,-4.3267
12973,-12.925,-4.9138
12984,-10.187,-1.4809
12996,-9.7345,-1.9788
13008,-14.315,-2.1398
13020,-14.999,-2.8478
13031,-13.29,-1.4227
13043,-14.763,-4.8252
13055,-13.353,-5.7653
13066,-13.114,-2.4837
13078,-13.819,-1.3313
13090,-12.874,-3.0374
13102,-14.053,-1.1483
13113,-15.61,-3.2815
13125,-11.145,-5.6347
13137,-12.497,-5.8891
13148,-12.746,-6.4394
13160,-12.907,-2.5501
13172,-15.037,-4.0247
13184,-14.084,-5.386
13195,-17.105,-3.3871
13207,-15.341,-1.5813
13219,-15.011,-1.3757
13230,-11.937,-1.2357
13242,-14.249,-3.5212
13254,-13.176,-4.2911
13266,-18.187,-3.4747
13277,-14.052,-6.4927
13289,-13.305,-2.1483
13301,-15.018,-2.0893
13313,-14.372,-7.3314
13324,-15.692,-3.432
13336,-13.938,-3.3321
13348,-16.384,-2.5729
13359,-15.298,-1.4661
13371,-16.596,-4.213
13383,-15.689,-4.4492
13395,-11.958,-4.9743
13406,-10.283,-6.5054
13418,-11.139,-5.8019
13430,-12.154,-5.0036
13441,-14.458,-4.004
13453,-16.81,-0.015468
13465,-13.233,1.227
13477,-11.531,-1.0925
13488,-11.135,-1.0001
13500,-13.245,0.9782
13512,-13.506,1.4525
13523,-12.385,-3.7749
13535,-11.392,-3.6414
13547,-14.59,-4.0965
13559,-16.967,-3.0678
13570,-14.001,-6.4164
13582,-13.219,-5.3391
13594,-15.875,-3.5734
13605,-15.312,-2.4677
13617,-14.936,-2.4209
13629,-15.237,-3.0944
13641,-16.709,0.67302
13652,-17.163,-1.4894
13664,-13.989,-4.6189
13676,-15.893,-3.7865
13688,-20.426,-1.1186
13699,-14.747,-0.15674
13711,-13.68,-2.1187
13723,-13.477,-4.2382
13734,-14.899,-3.9942
13746,-18.391,-4.04
13758,-13.572,-5.5905
13770,-12.979,-5.2256
13781,-14.706,-1.3603
13793,-15.009,-0.95904
13805,-15.698,-2.0607
13816,-16.19,-2.2982
13828,-16.111,-3.9211
13840,-16.212,-3.5462
13852,-16.185,-4.0344
13863,-15.734,-5.2645
13875,-14.434,-5.0631
13887,-16.094,-5.9596
13898,-15.665,-4.7225
13910,-14.469,-1.7748
13922,-14.144,-3.4113
13934,-14.238,-3.5448
13945,-16.055,-3.7808
13957,-16.956,-2.0443
13969,-17.119,-1.7441
13980,-16.321,-2.3203
13992,-14.742,-2.1796
14004,-12.669,-1.5715
14016,-11.205,-5.9901
14027,-12.74,-8.363
14039,-13.706,-5.5205
14051,-12.997,-2.1863
14063,-16.841,-3.8442
14074,-13.318,-6.099
14086,-12.49,-5.7576
14098,-16.819,-3.1592
14109,-20.466,-1.2661
14121,-18.681,-4.4041
14133,-17.053,-3.7063
14145,-17.605,-5.1753
14156,-16.738,-5.4485
14168,-14.471,-4.6086
14180,-14.877,-4.5999
14191,-15.916,-5.2871
14203,-16.287,-6.0162
14215,-15.943,-4.4427
14227,-16.314,-3.577
14238,-19.133,-6.1809
14250,-19.594,-7.5738
14262,-17.263,-7.3523
14273,-15.921,-9.0001
14285,-15.477,-7.4234
14297,-16.953,-6.6624
14309,-16.82,-7.1125
14320,-15.101,-3.5458
14332,-15.664,-4.625
14344,-17.156,-4.6583
14355,-18.212,-1.8053
14367,-19.177,-3.0648
14379,-17.261,-5.7975
14391,-14.183,-8.1794
14402,-16.045,-6.5928
14414,-18.693,-4.5439
14426,-17.693,-4.563
14438,-16.628,-3.5022
14449,-18.919,-4.9928
14461,-15.917,-6.2353
14473,-15.369,-8.7024
14484,-15.33,-8.2398
14496,-15.595,-5.5209
14508,-15.339,-3.9799
14520,-15.053,-6.2553
14531,-13.955,-6.6617
14543,-15.042,-4.9932
14555,-17.557,-3.5635
14566,-17.568,-2.7363
14578,-17.674,-3.9868
14590,-15.452,-7.5196
14602,-13.435,-3.8083
14613,-15.844,-6.0661
14625,-18.612,-7.5371
14637,-16.427,-6.8378
14648,-14.282,-7.9854
14660,-15.056,-8.6381
14672,-16.714,-5.5565
14684,-21.238,-3.4098
14695,-17.71,-3.6511
14707,-16.886,-6.3717
14719,-16.431,-4.8828
14730,-17.847,-5.1235
14742,-19.164,-2.6352
14754,-16.672,-3.9854
14766,-19.08,-4.6316
14777,-20.001,-6.1909
14789,-18.016,-4.7083
14801,-16.588,-4.7634
14813,-15.425,-3.9555
14824,-17.156,-6.4831
14836,-17.264,-4.9544
14848,-13.328,-6.8187
14859,-13.27,-6.8117
14871,-15.273,-4.4418
14883,-17.817,-5.264
14895,-16.055,-7.4243
14906,-15.865,-4.8781
14918,-13.232,-4.843
14930,-13.155,-6.293
14941,-15.084,-7.4867
14953,-11.41,-5.6845
14965,-14.09,-4.5151
14977,-17.937,-2.1593
14988,-16.509,-1.0366
15000,-16.897,-1.0178
15012,-16.686,-0.97974
15023,-17.512,-4.3687
15035,-17.041,-7.9539
15047,-15.935,-4.6099
15059,-16.902,-8.1894
15070,-17.452,-6.1336
15082,-17.919,-4.009
15094,-18.7,-6.7044
15105,-19.18,-7.2656
15117,-19.028,-8.1537
15129,-21.388,-6.2891
15141,-20.099,-4.9353
15152,-16.765,-9.3428
15164,-16.75,-7.8689
15176,-15.656,-4.7694
15188,-17.112,-4.4765
15199,-21.402,-4.1558
15211,-23.722,-3.2845
15223,-18.882,-4.5869
15234,-17.013,-5.8069
15246,-18.38,-7.5709
15258,-16.635,-9.9356
15270,-19.09,-3.8486
15281,-17.92,-2.8143
15293,-18.359,-4.4515
15305,-19.359,-5.4198
15316,-18.682,-4.6558
15328,-17.673,-5.5503
15340,-15.619,-5.9562
15352,-17.061,-4.9108
15363,-17.026,-5.8179
15375,-17.965,-8.322
15387,-19.096,-6.6968
15398,-18.317,-5.876
15410,-19.901,-5.4229
15422,-19.212,-7.8439
15434,-18.215,-9.1593
15445,-16.288,-4.1359
15457,-15.875,-4.8097
15469,-17.841,-5.2941
15480,-15.967,-4.102
15492,-16.533,-6.237
15504,-15.768,-5.7183
15516,-16.321,-2.7854
15527,-17.919,-4.1523
15539,-19.937,-6.1073
15551,-19.545,-4.092
15563,-18.622,-4.3608
15574,-19.088,-8.5825
15586,-20.037,-7.639
15598,-19.306,-6.0078
15609,-18.213,-9.268
15621,-20.362,-7.3212
15633,-16.171,-6.8757
15645,-18.875,-7.1417
15656,-17.76,-3.9596
15668,-18.868,-4.9001
15680,-19.471,-5.2616
15691,-18.753,-8.8035
15703,-22.638,-6.8857
15715,-19.915,-5.8153
15727,-19.74,-5.8312
15738,-22.085,-3.8905
15750,-20.787,-4.614
15762,-17.965,-5.8838
15773,-19.614,-7.8498
15785,-19.911,-5.4024
15797,-18.606,-4.9259
15809,-20.402,-8.3608
15820,-18.314,-5.0805
15832,-19.56,-1.6948
15844,-20.699,-1.3121
15855,-19.986,-4.5311
15867,-18.124,-6.8478
15879,-20.406,-6.8324
15891,-20.83,-8.3186
15902,-18.683,-5.1216
15914,-16.59,-3.5605
15926,-18.241,-4.483
15938,-18.587,-9.8603
15949,-18.524,-5.0963
15961,-18.674,-3.4184
15973,-16.729,-7.466
15984,-17.548,-4.7621
15996,-22.801,-3.3091
16008,-19.637,-6.6354
16020,-20.546,-9.244
16031,-21.536,-9.0992
16043,-19.621,-8.0796
16055,-17.832,-8.2925
16066,-20.267,-8.7986
16078,-22.502,-10.218
16090,-25.535,-7.938
16102,-22.172,-8.7874
16113,-20.336,-8.3595
16125,-19.939,-7.4712
16137,-20.151,-6.0969
16148,-19.682,-7.1211
16160,-23.381,-5.464
16172,-20.847,-6.3819
16184,-20.433,-8.0392
16195,-21.283,-10.062
16207,-19.909,-5.1391
16219,-18.497,-4.6296
16230,-19.284,-5.8417
16242,-20.908,-5.8914
16254,-19.815,-6.4774
16266,-19.61,-6.844
16277,-17.854,-6.347
16289,-17.72,-6.9405
16301,-19.886,-7.2647
16313,-18.535,-12.077
16324,-16.526,-9.5947
16336,-21.546,-4.8085
16348,-20.438,-4.2221
16359,-19.545,-5.7333
16371,-18.221,-4.2316
16383,-19.246,-6.6904
16395,-20.089,-8.6517
16406,-20.298,-9.0543
16418,-23.367,-10.75
16430,-19.703,-10.249
16441,-19.166,-11.187
16453,-19.245,-7.8134
16465,-19.619,-8.7461
16477,-19.282,-7.4225
16488,-18.878,-6.0185
16500,-17.199,-6.6203
16512,-17.791,-4.7332
16523,-18.511,-5.9827
16535,-18.515,-5.9672
16547,-20.301,-6.9921
16559,-19.045,-5.8197
16570,-20.102,-7.7135
16582,-20.172,-8.9964
16594,-20.267,-9.5601
16605,-19.327,-8.5638
16617,-21.063,-8.3178
16629,-22.114,-5.7839
16641,-23.347,-6.0278
16652,-21.678,-4.6272
16664,-19.163,-6.0435
16676,-19.786,-6.8606
16688,-22.637,-6.5434
16699,-23.032,-8.4967
16711,-21.287,-6.9945
16723,-20.246,-6.7542
16734,-21.242,-8.6268
16746,-21.34,-6.1954
16758,-19.91,-6.3894
16770,-21.384,-8.6652
16781,-22.548,-9.2126
16793,-23.191,-8.553
16805,-19.144,-6.6711
16816,-23.527,-4.9639
16828,-24.645,-5.0089
16840,-22.148,-4.6823
16852,-19.803,-6.5865
16863,-23.374,-7.3556
16875,-21.726,-3.8852
16887,-19.09,-6.0829
16898,-20.229,-4.2133
16910,-20.609,-3.2618
16922,-18.982,-5.2148
16934,-19.205,-8.0086
16945,-20.173,-7.8199
16957,-24.254,-10.924
16969,-25.785,-5.5795
16980,-25.062,-5.7744
16992,-23.283,-8.8231
17004,-22.717,-6.187
17016,-20.037,-4.8118
17027,-20.949,-6.5761
17039,-20.602,-9.4124
17051,-22.269,-7.1043
17063,-20.093,-8.6458
17074,-19.651,-6.9107
17086,-23.113,-6.874
17098,-20.393,-7.4561
17109,-19.776,-5.6014
17121,-21.874,-6.6712
17133,-20.608,-5.7142
17145,-21.124,-7.2624
17156,-20.497,-7.7584
17168,-22.841,-8.0218
17180,-23.369,-9.2617
17191,-21.061,-7.3358
17203,-20.642,-8.0287
17215,-20.479,-8.7665
17227,-21.877,-8.5899
17238,-21.179,-5.9882
17250,-20.574,-8.0831
17262,-22.928,-11.521
17273,-21.95,-9.9807
17285,-20.149,-9.7286
17297,-20.848,-6.5595
17309,-21.751,-5.6883
17320,-20.515,-6.5968
17332,-20.217,-6.5763
17344,-21.451,-9.4912
17355,-20.946,-8.9717
17367,-20.613,-7.7797
17379,-21.434,-7.5877
17391,-19.969,-11.207
17402,-21.011,-4.1865
17414,-23.958,-3.0814
17426,-22.847,-7.6357
17438,-23.507,-8.9441
17449,-22.223,-5.7061
17461,-20.061,-6.757
17473,-18.221,-10.909
17484,-18.481,-12.783
17496,-20.235,-9.6465
17508,-22.973,-10.367
17520,-21.261,-8.7846
17531,-21.313,-7.5515
17543,-19.723,-4.6512
17555,-21.323,-4.7433
17566,-21.384,-7.6242
17578,-22.307,-8.9323
17590,-23.368,-8.2837
17602,-21.624,-11.24
17613,-24.718,-10.359
17625,-25.209,-6.5661
17637,-23.994,-6.2594
17648,-24.706,-10.05
17660,-24.281,-7.137
17672,-22.93,-3.8578
17684,-23.443,-5.8444
17695,-23.034,-7.1795
17707,-23.794,-6.4055
17719,-26.961,-8.1232
17730,-26.092,-7.0161
17742,-24.168,-12.681
17754,-23.062,-8.8377
17766,-20.72,-6.7844
17777,-21.256,-6.1237
17789,-21.763,-9.9995
17801,-21.923,-10.167
17813,-21.721,-8.1003
17824,-23.743,-7.6831
17836,-23.487,-10.859
17848,-21.171,-8.0357
17859,-20.869,-9.6181
17871,-22.462,-7.6761
17883,-22.849,-9.7945
17895,-25.134,-7.6593
17906,-23.449,-5.6957
17918,-25.368,-6.2888
17930,-25.671,-5.6693
17941,-24.792,-2.3073
17953,-24.93,-4.1667
17965,-23.86,-9.768
17977,-22.848,-10.518
17988,-23.569,-9.5082
18000,-22.654,-8.381
18012,-23.238,-8.0162
18023,-22.5,-7.0823
18035,-24.511,-7.1449
18047,-22.498,-8.1347
18059,-24.091,-10.937
18070,-22.547,-8.675
18082,-23.881,-10.33
18094,-21.355,-9.8116
18105,-19.939,-9.9785
18117,-21.153,-7.1886
18129,-20.486,-7.6925
18141,-20.669,-6.2324
18152,-22.615,-7.5288
18164,-23.848,-5.732
18176,-22.379,-9.8601
18188,-22.685,-7.7696
18199,-20.221,-7.8384
18211,-20.02,-9.9405
18223,-21.838,-11.359
18234,-23.982,-10.237
18246,-24.923,-6.8705
18258,-22.893,-5.3759
18270,-21.8,-8.479
18281,-24.973,-10.423
18293,-26.025,-11.166
18305,-24.852,-8.0441
18316,-22.857,-6.808
18328,-22.518,-7.4186
18340,-23.765,-9.5025
18352,-22.054,-8.6972
18363,-20.743,-9.1183
18375,-22.323,-11.079
18387,-19.81,-8.4808
18398,-18.848,-6.4678
18410,-19.248,-7.8376
18422,-22.604,-10.799
18434,-26.927,-8.3098
18445,-24.45,-6.8142
18457,-23.906,-9.7618
18469,-22.981,-11.667
18480,-23.822,-11.355
18492,-23.336,-10.959
18504,-23.424,-8.9205
18516,-23.471,-8.8243
18527,-23.694,-8.8197
18539,-22.228,-7.2498
18551,-23.622,-7.1898
18563,-23.924,-8.1051
18574,-20.514,-10.872
18586,-20.683,-10.498
18598,-26.197,-8.0812
18609,-24.958,-5.8884
18621,-22.533,-7.806
18633,-20.658,-5.988
18645,-21.807,-11.084
18656,-22.732,-10.402
18668,-22.475,-8.6026
18680,-23.347,-6.3975
18691,-26.384,-7.1107
18703,-25.02,-8.2828
18715,-22.925,-9.2088
18727,-24.091,-11.408
18738,-26.957,-9.2399
18750,-24.366,-8.4642
18762,-23.981,-7.273
18773,-25.881,-8.0775
18785,-25.115,-8.8724
18797,-21.106,-7.337
18809,-21.24,-8.7911
18820,-24.697,-7.5729
18832,-24.677,-9.0069
18844,-23.516,-11.811
18855,-25.391,-9.8696
18867,-24.847,-8.1614
18879,-24.184,-8.566
18891,-24.77,-12.654
18902,-23.674,-10.211
18914,-25.021,-7.7588
18926,-22.021,-9.7399
18938,-21.821,-12.134
18949,-23.254,-11.832
18961,-24.847,-12.571
18973,-26.287,-7.8098
18984,-26.133,-7.377
18996,-25.353,-7.846
19008,-22.663,-6.5528
19020,-18.511,-7.5324
19031,-20.191,-11.803
19043,-26.275,-10.538
19055,-25.079,-9.939
19066,-23.453,-10.089
19078,-22.777,-10.821
19090,-23.039,-5.6292
19102,-21.929,-5.3201
19113,-20.845,-8.6592
19125,-22.305,-9.7203
19137,-23.33,-9.6121
19148,-22.692,-10.607
19160,-24.952,-11.04
19172,-24.95,-11.143
19184,-23.463,-10.11
19195,-25.101,-9.3737
19207,-23.779,-10.293
19219,-23.554,-10.98
19230,-26.47,-10.944
19242,-25.106,-9.2111
19254,-25.03,-10.289
19266,-27.384,-9.268
19277,-24.398,-7.6745
19289,-24.43,-5.8734
19301,-24.373,-7.7402
19313,-23.244,-9.3528
19324,-22.695,-7.4009
19336,-22.263,-8.3912
19348,-25.98,-9.6075
19359,-22.97,-9.4413
19371,-22.371,-7.9067
19383,-23.181,-8.0557
19395,-24.173,-10.435
19406,-23.448,-11.193
19418,-22.104,-13.524
19430,-23.012,-12.939
19441,-25.123,-11.049
19453,-22.384,-9.742
19465,-25.872,-10.248
19477,-23.912,-8.0778
19488,-24.638,-9.2971
19500,-26.256,-10.197
19512,-23.018,-7.7694
19523,-22.052,-7.5779
19535,-25.573,-8.6094
19547,-26.023,-9.7957
19559,-25.267,-10.015
19570,-25.582,-12.861
19582,-25.922,-11.494
19594,-26.967,-8.914
19605,-23.814,-8.5041
19617,-24.014,-11.001
19629,-23.682,-11.379
19641,-23.893,-10.514
19652,-24.732,-10.357
19664,-23.682,-7.5787
19676,-22.623,-9.3702
19688,-22.348,-6.8626
19699,-22.777,-8.5081
19711,-25.158,-8.0808
19723,-23.446,-11.338
19734,-23.542,-11.865
19746,-24.882,-11.188
19758,-24.34,-12.092
19770,-22.8,-12.824
19781,-23.492,-11.679
19793,-22.145,-10.238
19805,-21.799,-9.4227
19816,-25.469,-8.8496
19828,-28.066,-10.879
19840,-28.774,-11.681
19852,-25.347,-11.67
19863,-24.525,-11.727
19875,-22.258,-11.97
19887,-23.535,-13.744
19898,-26.836,-13.828
19910,-27.443,-10.424
19922,-29.515,-10.574
19934,-27.527,-11.494
19945,-23.858,-11.61
19957,-26.578,-7.0502
19969,-25.082,-6.1256
19980,-25.296,-8.9514
19992,-24.127,-9.2984
20004,-21.166,-8.6309
20016,-23.823,-8.2579
20027,-22.622,-11.601
20039,-26.016,-10.005
20051,-27.508,-9.046
20063,-25.244,-8.6627
20074,-27.838,-10.25
20086,-27.609,-9.5799
20098,-25.698,-11.555
20109,-25.214,-10.55
20121,-23.708,-7.9236
20133,-24.712,-8.4956
20145,-29.289,-8.0044
20156,-24.977,-8.0666
20168,-26.022,-10.089
20180,-26.457,-12.207
20191,-23.347,-12.171
20203,-22.587,-10.003
20215,-25.343,-9.9589
20227,-22.85,-11.494
20238,-21.452,-10.723
20250,-23.274,-10.058
20262,-27.466,-11.703
20273,-23.948,-12.088
20285,-25.314,-9.8864
20297,-25.179,-11.543
20309,-24.593,-10.449
20320,-24.528,-9.1963
20332,-27.937,-12.098
20344,-24.162,-9.3795
20355,-23.466,-9.0709
20367,-26.899,-11.615
20379,-24.547,-12.006
20391,-22.752,-11.824
20402,-22.424,-12.457
20414,-22.506,-10.128
20426,-26.521,-10.974
20438,-32.582,-12.733
20449,-23.643,-12.851
20461,-25.611,-11.05
20473,-27.276,-10.4
20484,-24.96,-9.2872
20496,-23.627,-9.6304
20508,-26.115,-7.5981
20520,-25.664,-10.162
20531,-25.416,-10.357
20543,-24.209,-10.077
20555,-26.55,-12.043
20566,-26.236,-10.148
20578,-26.31,-11.662
20590,-28.554,-10.424
20602,-24.908,-10.297
20613,-22.894,-9.5931
20625,-23.592,-6.7363
20637,-24.012,-9.2932
20648,-26.01,-11.932
20660,-23.852,-9.3915
20672,-23.498,-9.1427
20684,-22.289,-10.188
20695,-21.712,-10.04
20707,-26.766,-10.231
20719,-29.844,-10.507
20730,-28.268,-9.4551
20742,-30.379,-12.759
20754,-25.853,-12.996
20766,-26.813,-12.598
20777,-27.3,-10.877
20789,-30.707,-9.691
20801,-30.172,-11.426
20813,-25.324,-11.113
20824,-27.489,-10.364
20836,-28.368,-10.03
20848,-26.323,-8.4461
20859,-26.372,-8.1314
20871,-25.7,-11.72
20883,-23.516,-15.703
20895,-24.144,-12.812
20906,-24.772,-10.503
20918,-24.087,-11.339
20930,-25.89,-12.642
20941,-25.245,-13.67
20953,-26.341,-14.08
20965,-27.6,-11.762
20977,-25.891,-9.9586
20988,-23.948,-11.311
21000,-25.485,-13.646
21012,-26.253,-13.264
21023,-28.813,-11.504
21035,-24.408,-11.879
21047,-24.909,-10.904
21059,-27.421,-9.5304
21070,-30.115,-9.8908
21082,-26.9,-9.9692
21094,-24.828,-9.8334
21105,-24.194,-11.914
21117,-25.646,-12.167
21129,-25.64,-11.65
21141,-27.551,-10.528
21152,-29.268,-11.753
21164,-26.359,-13.78
21176,-26.81,-13.268
21188,-27.064,-11.068
21199,-26.686,-9.9742
21211,-26.68,-9.0057
21223,-27.725,-9.6106
21234,-27.288,-13.82
21246,-27.527,-12.624
21258,-26.247,-13.241
21270,-25.183,-11.54
21281,-25.313,-7.5032
21293,-27.929,-9.4176
21305,-28.684,-12.748
21316,-27.028,-12.389
21328,-26.607,-13.713
21340,-27.091,-12.606
21352,-24.562,-11.505
21363,-27.02,-11.998
21375,-25.453,-10.7
21387,-25.008,-12.604
21398,-26.685,-10.784
21410,-25.008,-8.4207
21422,-24.845,-7.5444
21434,-25.629,-9.6843
21445,-26.967,-11.861
21457,-27.719,-10.434
21469,-27.096,-11.219
21480,-27.581,-14.148
21492,-28.133,-14.243
21504,-26.258,-10.398
21516,-26.493,-9.0155
21527,-28.467,-9.3905
21539,-25.967,-9.397
21551,-24.525,-12.681
21563,-24.82,-13.893
21574,-27.932,-12.297
21586,-25.706,-12.896
21598,-24.676,-13.238
21609,-28.331,-13.473
21621,-26.921,-13.416
21633,-27.36,-11.41
21645,-28.685,-13.141
21656,-27.08,-11.343
21668,-27.112,-7.2641
21680,-29.991,-8.5395
21691,-27.463,-11.918
21703,-27.855,-10.294
21715,-28.865,-10.812
21727,-28.538,-15.448
21738,-28.878,-12.594
21750,-27.125,-13.834
21762,-27.017,-14.898
21773,-27.856,-13.35
21785,-25.565,-14.574
21797,-24.6,-14.779
21809,-24.979,-11.798
21820,-24.612,-8.8649
21832,-28.039,-10.821
21844,-28.121,-11.412
21855,-27.816,-10.512
21867,-25.66,-13.43
21879,-25.809,-10.621
21891,-28.676,-8.8627
21902,-27.106,-10.106
21914,-26.858,-11.532
21926,-25.298,-12.848
21938,-24.464,-11.571
21949,-24.236,-10.241
21961,-24.657,-11.762
21973,-26.64,-13.34
21984,-28.554,-11.762
21996,-28.576,-9.8745
22008,-27.644,-8.9033
22020,-24.849,-11.311
22031,-23.324,-14.89
22043,-25.658,-13.829
22055,-25.668,-12.185
22066,-28.335,-10.269
22078,-25.087,-9.3982
22090,-25.026,-9.3437
22102,-26.325,-10.756
22113,-25.78,-10.026
22125,-26.675,-9.9522
22137,-26.622,-11.166
22148,-27.304,-12.657
22160,-27.652,-14.012
22172,-28.635,-12.121
22184,-26.302,-10.455
22195,-27.079,-13.367
22207,-28.238,-11.631
22219,-26.634,-10.876
22230,-25.252,-13.638
22242,-24.444,-13.156
22254,-25.665,-12.233
22266,-28.108,-11.877
22277,-29.266,-9.0884
22289,-28.975,-10.646
22301,-27.497,-12.929
22313,-27.764,-14.217
22324,-27.841,-16.297
22336,-27.185,-15.669
22348,-25.359,-14.421
22359,-26.725,-14.171
22371,-27.712,-12.864
22383,-26.61,-11.177
22395,-27.814,-12.025
22406,-27.971,-14.322
22418,-26.915,-12.494
22430,-26.19,-12.782
22441,-29.727,-12.921
22453,-27.824,-12.805
22465,-26.565,-10.842
22477,-27.334,-12.662
22488,-27.886,-12.688
22500,-26.106,-12.485
22512,-28.092,-11.897
22523,-29.8,-12.877
22535,-27.537,-16.145
22547,-27.754,-15.938
22559,-29.976,-13.631
22570,-29.802,-11.217
22582,-27.971,-11.844
22594,-28.296,-11.188
22605,-29.314,-8.3172
22617,-28.242,-13.987
22629,-25.083,-13.063
22641,-27.401,-12.866
22652,-31.335,-12.66
22664,-28.647,-9.6741
22676,-30.044,-12.289
22688,-30.371,-11.744
22699,-27.847,-9.8459
22711,-23.963,-11.97
22723,-28.192,-13.423
22734,-31.231,-13.81
22746,-28.778,-14.115
22758,-25.355,-11.529
22770,-24.145,-10.714
22781,-27.598,-11.225
22793,-27.731,-12.083
22805,-25.688,-15.027
22816,-26.561,-13.518
22828,-31.867,-14.772
22840,-30.033,-13.996
22852,-29.625,-13.949
22863,-29.146,-12.356
22875,-25.337,-12.782
22887,-26.467,-14.843
22898,-29.829,-11.395
22910,-29.497,-13.625
22922,-26.266,-15.978
22934,-26.154,-11.671
22945,-27.514,-11.446
22957,-27.177,-14.084
22969,-29.168,-13.203
22980,-27.674,-12.106
22992,-27.107,-13.029
23004,-28.577,-14.614
23016,-31.821,-11.051
23027,-33.064,-9.6162
23039,-29.9,-10.629
23051,-28.826,-9.8568
23063,-29.73,-12.744
23074,-26.469,-12.09
23086,-25.993,-11.741
23098,-26.548,-11.659
23109,-29.034,-12.282
23121,-29.877,-12.743
23133,-26.126,-13.558
23145,-26.045,-13.784
23156,-28.143,-15.441
23168,-27.437,-15.007
23180,-32.832,-11.271
23191,-31.001,-10.177
23203,-27.194,-11.053
23215,-26.245,-13.616
23227,-26.339,-12.498
23238,-27.268,-11.156
23250,-31.349,-11.293
23262,-30.102,-13.172
23273,-27.395,-12.309
23285,-27.654,-11.195
23297,-27.453,-13.992
23309,-27.71,-15.631
23320,-26.96,-13.036
23332,-25.738,-13.764
23344,-26.193,-9.5172
23355,-28.772,-8.4257
23367,-28.762,-9.4345
23379,-27.143,-11.746
23391,-27.423,-11.917
23402,-29.729,-13.926
23414,-28.405,-17.742
23426,-29.784,-16.488
23438,-30.312,-15.598
23449,-27.982,-16.907
23461,-27.264,-13.254
23473,-28.256,-12.48
23484,-28.577,-13.079
23496,-29.027,-15.294
23508,-26.621,-14.996
23520,-27.603,-16.087
23531,-29.493,-13.905
23543,-30.298,-13.554
23555,-29.983,-15.584
23566,-30.705,-15.023
23578,-30.266,-15.17
23590,-28.64,-11.906
23602,-29.879,-12.895
23613,-31.787,-14.086
23625,-29.423,-13.757
23637,-30.979,-14.016
23648,-30.898,-14.36
23660,-29.272,-15.301
23672,-30.712,-13.892
23684,-30.787,-14.068
23695,-31.608,-12.768
23707,-30.045,-12.64
23719,-27.113,-13.157
23730,-23.121,-14.782
23742,-25.65,-12.006
23754,-26.804,-15.352
23766,-25.972,-13.993
23777,-26.609,-13.748
23789,-26.981,-15.649
23801,-27.495,-14.749
23813,-25.913,-12.079
23824,-26.81,-11.905
23836,-27.647,-12.566
23848,-26.496,-13.782
23859,-26.297,-13.196
23871,-29.025,-15.208
23883,-29.366,-15.177
23895,-25.885,-16.036
23906,-25.994,-15.987
23918,-24.432,-13.915
23930,-24.36,-13.508
23941,-28.065,-15.006
23953,-29.237,-14.459
23965,-27.284,-15.451
23977,-27.908,-14.523
23988,-29.074,-16.314
