FFT,Power Spectrum
Frequency[Hz],Level-L[dB],Level-R[dB]
11.719,-21.192,-25.954
23.438,-1.792,-5.7523
35.156,-3.1449,-0.46359
46.875,5.071,6.8871
58.594,5.6504,5.9047
70.313,4.8869,3.8109
82.031,6.7319,8.3399
93.75,11.548,9.8861
105.47,9.4889,12.847
117.19,8.7728,11.848
128.91,15.888,15.96
140.63,18.08,18.881
152.34,12.984,15.338
164.06,3.7429,12.324
175.78,5.4736,13.988
187.5,9.0606,14.163
199.22,9.7199,15.886
210.94,8.3335,15.815
222.66,8.7703,14.163
234.38,11.097,13.838
246.09,8.502,14.403
257.81,5.2934,15.691
269.53,7.5979,16.585
281.25,10.384,16.906
292.97,8.4215,15.521
304.69,5.2497,15.866
316.41,5.0225,15.145
328.13,5.3683,13.662
339.84,4.8087,16.491
351.56,5.9999,16.918
363.28,5.5149,13.376
375,4.5532,14.286
386.72,5.7409,16.301
398.44,3.9825,13.901
410.16,4.6635,12.619
421.88,3.8994,13.577
433.59,7.6267,14.253
445.31,6.3421,14.73
457.03,4.3592,13.075
468.75,4.8416,12.857
480.47,3.8283,15.358
492.19,5.5246,14.775
503.91,3.8067,16.534
515.63,0.51042,17.676
527.34,0.53163,15.378
539.06,3.0645,16.201
550.78,3.7311,16.842
562.5,2.6743,15.437
574.22,6.6878,13.418
585.94,7.1662,11.474
597.66,5.7771,12.769
609.38,3.8249,13.805
621.09,5.3112,15.103
632.81,7.5192,18.461
644.53,8.1885,16.558
656.25,6.3107,14.225
667.97,4.1225,14.241
679.69,5.5597,13.782
691.41,6.806,16.287
703.13,4.5227,16.63
714.84,3.7476,15.258
726.56,5.9505,13.902
738.28,7.2561,16.104
750,7.5062,16.441
761.72,4.1872,16.127
773.44,7.4855,16.879
785.16,6.5346,18.343
796.88,5.4366,17.825
808.59,5.2212,16.043
820.31,3.3458,17.403
832.03,1.4483,17.32
843.75,3.5159,17.17
855.47,6.7145,14.932
867.19,6.718,14.469
878.91,6.3031,14.331
890.63,3.6174,15.269
902.34,3.5862,17.09
914.06,5.6629,14
925.78,5.2684,14.161
937.5,2.4611,14.409
949.22,2.0072,15.015
960.94,5.2922,15.226
972.66,6.6545,15.464
984.38,4.3233,16.586
996.09,4.2093,16.684
1007.8,5.3133,15.845
1019.5,5.0584,15.046
1031.3,7.2152,17.357
1043,5.3355,17.348
1054.7,6.1144,14.727
1066.4,5.4898,14.695
1078.1,5.5205,15.284
1089.8,5.0859,14.775
1101.6,5.2277,15.54
1113.3,6.5085,14.177
1125,6.9721,12.49
1136.7,6.8499,13.501
1148.4,6.3972,14.951
1160.2,4.4185,15.802
1171.9,3.0931,16.011
1183.6,6.6699,14.632
1195.3,7.7009,15.777
1207,4.109,15.779
1218.8,5.9324,14.884
1230.5,5.3256,17.074
1242.2,3.5789,17.504
1253.9,1.9082,15.966
1265.6,1.5921,14.895
1277.3,3.8148,16.341
1289.1,2.092,15.67
1300.8,4.3941,14.175
1312.5,4.4335,14.411
1324.2,0.11865,16.324
1335.9,3.1537,18.129
1347.7,4.8274,16.8
1359.4,3.7154,15.05
1371.1,2.4454,14.84
1382.8,3.4362,16.233
1394.5,3.54,16.234
1406.3,5.9418,17.099
1418,6.8066,16.514
1429.7,4.1236,13.053
1441.4,1.2061,13.518
1453.1,1.7249,16.193
1464.8,3.2462,14.84
1476.6,6.1317,12.04
1488.3,6.3432,13.663
1500,5.0595,14.939
1511.7,4.2729,17.087
1523.4,3.4396,17.196
1535.2,2.2206,16.545
1546.9,1.5675,16.042
1558.6,0.13353,16.159
1570.3,2.7609,14.186
1582,4.4002,13.884
1593.8,1.641,16.282
1605.5,3.4931,14.897
1617.2,5.5263,12.04
1628.9,3.5124,13.285
1640.6,1.9794,13.831
1652.3,2.7282,12.011
1664.1,6.8889,12.981
1675.8,4.7032,14.697
1687.5,2.6492,13.607
1699.2,2.8103,14.308
1710.9,2.6139,14.045
1722.7,3.2584,14.767
1734.4,0.3256,15.321
1746.1,3.1292,16.023
1757.8,2.5465,15.56
1769.5,5.2189,15.44
1781.3,8.2478,15.538
1793,7.7355,14.311
1804.7,4.6302,14.184
1816.4,8.6624,14.774
1828.1,7.9052,13.699
1839.8,4.7982,13.228
1851.6,0.6932,15.31
1863.3,3.9389,14.599
1875,1.7647,14.048
1886.7,2.2837,14.699
1898.4,2.9271,12.804
1910.2,1.5215,12.79
1921.9,1.3144,13.449
1933.6,4.1613,13.578
1945.3,5.7489,14.099
1957,3.8022,15.812
1968.8,0.9618,14.419
1980.5,0.23686,10.811
1992.2,2.2309,11.641
2003.9,-1.3069,13.519
2015.6,-0.57234,13.506
2027.3,-0.80018,12.476
2039.1,0.9057,9.5901
2050.8,4.7764,11.215
2062.5,6.5637,12.234
2074.2,6.7053,13.751
2085.9,5.4657,12.764
2097.7,3.9066,11.59
2109.4,3.3521,12.459
2121.1,3.4074,14.004
2132.8,4.4957,12.539
2144.5,2.787,10.226
2156.3,3.8113,12.759
2168,0.58143,14.665
2179.7,0.90518,15.555
2191.4,1.7037,13.926
2203.1,-0.83377,13.132
2214.8,1.1575,14.988
2226.6,3.2953,14.286
2238.3,5.1273,14.285
2250,2.6858,14.443
2261.7,1.7897,14.005
2273.4,2.0369,13.376
2285.2,2.9667,14.238
2296.9,2.2378,15.261
2308.6,-0.20068,13.306
2320.3,2.4042,10.703
2332,-0.62699,10.469
2343.8,-1.318,11.232
2355.5,2.2724,11.724
2367.2,6.0155,14.031
2378.9,6.8978,15.695
2390.6,3.0693,14.448
2402.3,3.3322,12.132
2414.1,3.4983,7.9935
2425.8,-0.44303,11.798
2437.5,0.072115,13.126
2449.2,0.21796,13.02
2460.9,-1.3883,11.581
2472.7,-1.3939,10.309
2484.4,2.4954,11.787
2496.1,4.5422,12.344
2507.8,4.2687,12.528
2519.5,3.2879,12.832
2531.3,-0.49489,14.319
2543,-1.7635,13.565
2554.7,-0.93225,13.873
2566.4,-1.109,13.322
2578.1,0.64216,12.797
2589.8,-0.061282,12.002
2601.6,-1.6247,10.134
2613.3,-1.7778,11.634
2625,-0.053741,11.06
2636.7,3.0712,12.283
2648.4,3.5132,12.923
2660.2,2.895,9.296
2671.9,2.3571,9.4418
2683.6,2.0655,12.715
2695.3,0.8562,12.937
2707,2.3192,10.992
2718.8,1.4147,8.8311
2730.5,-2.5916,9.7496
2742.2,-1.9499,12.325
2753.9,1.9406,11.438
2765.6,2.4365,9.2173
2777.3,1.4587,11.74
2789.1,-1.3004,13.039
2800.8,-3.2127,11.449
2812.5,-0.86859,12.253
2824.2,1.0491,10.645
2835.9,-0.33107,9.2036
2847.7,-2.708,11.456
2859.4,0.14817,11.789
2871.1,2.1248,10.16
2882.8,2.2256,10.924
2894.5,2.8246,9.8891
2906.3,4.0609,8.3773
2918,2.1906,9.548
2929.7,1.9528,11.009
2941.4,0.25407,12.237
2953.1,3.3837,9.9657
2964.8,6.0498,10.055
2976.6,3.0411,11.167
2988.3,0.452,10.756
3000,-2.4854,9.9914
3011.7,-1.615,8.9027
3023.4,-1.322,11.252
3035.2,-1.103,12.099
3046.9,1.0117,9.9525
3058.6,0.4495,8.5299
3070.3,-3.938,10.908
3082,-4.7694,9.4624
3093.8,-2.1168,8.375
3105.5,-0.60691,9.2161
3117.2,-2.9335,11.259
3128.9,-2.9715,11.775
3140.6,-1.2811,9.916
3152.3,-0.43975,7.7015
3164.1,-4.9108,8.3275
3175.8,-5.1775,9.7268
3187.5,-2.6233,6.0625
3199.2,0.18032,3.4901
3210.9,1.1671,7.4206
3222.7,-1.6535,9.9377
3234.4,-2.0052,10.612
3246.1,-2.9893,11.653
3257.8,-4.4608,13.167
3269.5,-5.0951,10.696
3281.3,-2.4058,9.4536
3293,0.79335,10.017
3304.7,-0.40099,6.8201
3316.4,-1.8795,7.7306
3328.1,-0.46557,7.1255
3339.8,-3.7011,11.426
3351.6,-3.2778,10.937
3363.3,-4.1721,10.932
3375,-3.6187,11.011
3386.7,-4.7225,12.258
3398.4,-2.1333,11.735
3410.2,-0.60302,10.205
3421.9,-1.6622,10.166
3433.6,-2.4033,9.302
3445.3,-3.2995,9.9505
3457,-2.0864,10.961
3468.8,1.0988,10.609
3480.5,0.58283,11.204
3492.2,-2.4662,9.9702
3503.9,0.5513,10.551
3515.6,0.19805,11.529
3527.3,-3.68,9.9564
3539.1,-1.9259,8.3916
3550.8,-2.7488,7.9776
3562.5,-1.4977,8.2582
3574.2,-3.5622,8.9026
3585.9,-0.55806,9.4219
3597.7,-0.57729,9.4554
3609.4,-1.6086,10.234
3621.1,-1.2405,11.541
3632.8,1.1011,9.9032
3644.5,0.53239,9.5917
3656.3,-0.31479,8.1774
3668,7.838,8.3701
3679.7,23.492,17.827
3691.4,24.579,18.715
3703.1,12.445,11.714
3714.8,0.27967,10.904
3726.6,-0.66709,9.9302
3738.3,-3.0446,8.5036
3750,-1.3185,8.8797
3761.7,-2.6459,10.611
3773.4,-3.1527,8.4221
3785.2,-1.4338,6.4064
3796.9,-4.9676,9.378
3808.6,-4.7601,8.5525
3820.3,-1.6403,8.7431
3832,0.76757,10.345
3843.8,2.1835,10.321
3855.5,0.29525,9.6861
3867.2,-5.5841,8.9276
3878.9,-4.1501,9.2282
3890.6,0.042372,9.7857
3902.3,-0.15726,9.8669
3914.1,-2.1781,6.7188
3925.8,-1.1385,7.3789
3937.5,-2.5386,9.5566
3949.2,-0.25511,9.9757
3960.9,-1.8703,10.038
3972.7,1.1814,9.5254
3984.4,-0.03968,9.0869
3996.1,-0.79636,7.2772
4007.8,-3.0044,8.8313
4019.5,-5.4463,10.966
4031.3,-4.4932,10.646
4043,-3.5921,9.8409
4054.7,-2.9226,9.6876
4066.4,-4.481,7.2776
4078.1,-4.5263,9.3563
4089.8,-0.28132,9.9445
4101.6,1.0719,9.705
4113.3,-2.5474,10.428
4125,-6.4013,10.765
4136.7,-3.7713,11.245
4148.4,-3.9134,9.5622
4160.2,-3.2632,12.721
4171.9,-3.4971,13.176
4183.6,-1.6727,9.8844
4195.3,0.33474,7.8682
4207,-2.2726,9.2327
4218.8,-2.5985,8.9633
4230.5,-2.1212,9.8727
4242.2,-5.0962,8.3003
4253.9,-3.1423,7.2502
4265.6,-1.4757,7.8037
4277.3,-1.1289,8.0634
4289.1,-1.837,6.6907
4300.8,-2.8174,9.1127
4312.5,-1.304,9.7803
4324.2,-2.7051,9.0502
4335.9,-1.9301,8.0092
4347.7,-2.0227,8.847
4359.4,-4.4113,8.7048
4371.1,-3.8422,9.7771
4382.8,-3.6763,8.1388
4394.5,-3.3263,7.3671
4406.3,-4.462,10.029
4418,-5.1279,9.4523
4429.7,-3.163,8.8522
4441.4,-4.352,9.7352
4453.1,-2.809,10.902
4464.8,-2.9182,11.014
4476.6,-2.702,9.4627
4488.3,-1.7445,7.4072
4500,-3.4712,10.014
4511.7,-3.7019,7.196
4523.4,-4.524,7.9584
4535.2,-5.3088,7.9335
4546.9,-0.80449,9.4097
4558.6,-1.0151,9.7654
4570.3,-1.5224,12.028
4582,-0.99226,10.344
4593.8,-1.7752,7.9357
4605.5,-2.6985,7.2984
4617.2,-0.76679,10.914
4628.9,-0.14887,11.249
4640.6,-1.4623,9.459
4652.3,-3.4213,10.165
4664.1,-3.6438,9.6602
4675.8,-6.3413,9.7553
4687.5,-6.3282,8.4101
4699.2,-6.1196,9.1495
4710.9,-2.8881,5.5916
4722.7,0.012521,5.5261
4734.4,-1.3125,7.6739
4746.1,-2.5058,7.9856
4757.8,-2.0912,5.9718
4769.5,-2.2776,5.9912
4781.3,-6.6524,8.5285
4793,-4.53,7.0546
4804.7,-4.3822,8.0704
4816.4,-10.824,7.7865
4828.1,-6.9134,7.473
4839.8,-5.6483,6.4541
4851.6,-4.4338,5.7287
4863.3,-6.3111,5.3123
4875,-8.3094,9.0121
4886.7,-11.031,9.5371
4898.4,-7.1044,5.6947
4910.2,-5.6793,9.7539
4921.9,-4.7566,7.6048
4933.6,-5.0981,7.5476
4945.3,-4.9341,8.7094
4957,-5.8543,8.5531
4968.8,-6.2985,8.0891
4980.5,-4.8104,6.6371
4992.2,-3.0376,4.3345
5003.9,-3.1325,6.9721
5015.6,-4.8784,6.8096
5027.3,-7.0247,9.1661
5039.1,-3.7555,9.7772
5050.8,-2.1478,4.7817
5062.5,-1.9612,4.0593
5074.2,-0.93422,7.2712
5085.9,-4.9662,8.6667
5097.7,-6.5151,8.6105
5109.4,-7.1757,8.119
5121.1,-6.1098,8.4894
5132.8,-4.7244,9.0761
5144.5,-3.3825,8.5654
5156.3,-4.1858,10.311
5168,-4.5121,8.5998
5179.7,-3.4293,5.6869
5191.4,-6.1043,5.9806
5203.1,-3.18,7.7303
5214.8,-2.2514,10.142
5226.6,-2.5062,8.9893
5238.3,-4.1686,7.0002
5250,-6.8508,6.2453
5261.7,-4.8603,6.7192
5273.4,-5.8623,5.2305
5285.2,-4.5714,5.6478
5296.9,-5.9359,6.7074
5308.6,-5.5465,10.036
5320.3,-3.9216,11.305
5332,-3.9659,10.744
5343.8,-5.3337,8.4553
5355.5,-3.2614,8.1309
5367.2,-6.3366,7.5447
5378.9,-8.0649,7.8155
5390.6,-4.6522,10.377
5402.3,-1.8493,9.7378
5414.1,-2.7456,7.7272
5425.8,-3.986,6.0163
5437.5,-6.0296,4.6334
5449.2,-4.6924,3.8064
5460.9,-3.7113,6.2826
5472.7,-6.4298,8.5305
5484.4,-7.1532,8.5263
5496.1,-4.8914,9.141
5507.8,-2.8001,7.0518
5519.5,-3.3233,8.1632
5531.3,-2.6112,8.8007
5543,-3.6872,5.5264
5554.7,-5.5456,3.3688
5566.4,-7.6417,5.3912
5578.1,-4.9945,6.3159
5589.8,-4.1098,9.7809
5601.6,-4.2645,10.078
5613.3,-5.1771,9.3119
5625,-8.8451,8.4389
5636.7,-7.276,7.4266
5648.4,-4.9332,6.7364
5660.2,-5.8787,5.4286
5671.9,-3.7879,7.1092
5683.6,-3.5712,5.4597
5695.3,-6.2798,5.1844
5707,-9.6769,6.6461
5718.8,-6.4211,6.2508
5730.5,-2.7774,6.7882
5742.2,-5.2602,8.245
5753.9,-7.303,8.3662
5765.6,-7.7368,8.6828
5777.3,-6.6548,7.3047
5789.1,-4.4234,7.4247
5800.8,-5.1347,8.8161
5812.5,-5.5216,8.0242
5824.2,-4.4302,7.1134
5835.9,-6.1525,5.7219
5847.7,-9.1474,7.0692
5859.4,-8.8419,8.6332
5871.1,-3.2948,9.7832
5882.8,-2.5372,8.657
5894.5,-4.9559,6.3365
5906.3,-4.0751,7.7155
5918,-2.5399,7.5522
5929.7,-1.4787,8.1906
5941.4,-2.8448,6.6543
5953.1,-5.5396,6.9962
5964.8,-6.8595,7.482
5976.6,-3.6039,6.8471
5988.3,-2.4151,5.0974
6000,-2.2202,5.2645
6011.7,-4.0818,5.5483
6023.4,-3.7751,4.9033
6035.2,-5.062,6.7181
6046.9,-6.5245,6.6364
6058.6,-5.9782,8.9303
6070.3,-6.3707,10.873
6082,-7.9056,7.2018
6093.8,-7.0758,4.6163
6105.5,-3.5179,4.3173
6117.2,-2.3774,6.9304
6128.9,-2.5056,8.7868
6140.6,-2.4567,8.4958
6152.3,-5.2637,9.6425
6164.1,-5.8406,8.7557
6175.8,-5.0698,6.8542
6187.5,-5.7393,5.1724
6199.2,-5.0184,6.0733
6210.9,-3.7788,6.0529
6222.7,-5.2575,8.6935
6234.4,-7.3638,8.8547
6246.1,-8.2427,7.0467
6257.8,-5.615,6.6175
6269.5,-4.509,6.9034
6281.3,-7.2856,6.9525
6293,-7.4091,7.2513
6304.7,-5.8364,3.4944
6316.4,-5.2485,7.0904
6328.1,-7.8643,9.268
6339.8,-9.281,6.5935
6351.6,-6.4793,6.6249
6363.3,-6.8051,3.3555
6375,-8.1613,5.5785
6386.7,-6.9973,7.2071
6398.4,-7.0193,8.3893
6410.2,-8.2615,5.9809
6421.9,-5.639,6.5415
6433.6,-5.5059,4.792
6445.3,-8.3607,5.6225
6457,-7.1163,6.428
6468.8,-7.252,4.8668
6480.5,-4.4229,5.2211
6492.2,-4.8115,4.793
6503.9,-5.689,3.2829
6515.6,-4.9432,4.6927
6527.3,-6.6167,6.897
6539.1,-9.0617,4.1879
6550.8,-5.6385,2.1211
6562.5,-2.4233,3.0247
6574.2,-4.2947,6.6635
6585.9,-6.3835,7.7576
6597.7,-6.6436,6.1818
6609.4,-7.287,4.3784
6621.1,-6.7391,6.9748
6632.8,-6.6791,9.5963
6644.5,-9.2377,6.9599
6656.3,-6.0282,7.4602
6668,-5.6676,8.3098
6679.7,-5.6358,7.4778
6691.4,-8.8709,3.6713
6703.1,-9.1141,3.88
6714.8,-7.1247,5.2627
6726.6,-6.34,3.9528
6738.3,-6.4169,3.7837
6750,-6.6119,5.868
6761.7,-5.0996,6.8779
6773.4,-6.0044,6.213
6785.2,-5.9922,5.7767
6796.9,-6.7523,5.8178
6808.6,-7.9583,7.0818
6820.3,-8.3093,6.0076
6832,-7.0266,4.3361
6843.8,-7.1232,4.6094
6855.5,-3.7916,4.4429
6867.2,-5.8158,4.1906
6878.9,-6.395,7.4501
6890.6,-8.2833,6.9479
6902.3,-9.8458,5.2267
6914.1,-11.85,6.1736
6925.8,-8.0101,4.7306
6937.5,-5.6482,3.9502
6949.2,-7.4906,5.4879
6960.9,-7.8252,7.7063
6972.7,-7.0561,5.1787
6984.4,-8.2929,3.074
6996.1,-7.6279,2.5234
7007.8,-5.1987,4.8125
7019.5,-5.6445,7.3248
7031.3,-6.5742,5.5896
7043,-6.5959,5.6237
7054.7,-9.1594,4.6364
7066.4,-9.1933,5.9479
7078.1,-11.108,4.6393
7089.8,-9.0491,4.6784
7101.6,-5.6681,4.6737
7113.3,-8.2145,6.3826
7125,-5.8698,4.61
7136.7,-4.9512,5.0553
7148.4,-5.8107,5.7219
7160.2,-4.5359,5.2976
7171.9,-4.6476,5.0239
7183.6,-6.5336,6.5803
7195.3,-7.2418,5.0818
7207,-8.1017,4.2754
7218.8,-8.1886,4.6515
7230.5,-9.9311,4.8701
7242.2,-8.6463,6.8644
7253.9,-8.2936,5.9777
7265.6,-6.0882,5.2921
7277.3,-7.2244,6.6155
7289.1,-12.016,5.4069
7300.8,-9.4243,4.5352
7312.5,-5.2739,3.2759
7324.2,-5.3167,5.9163
7335.9,-7.2961,5.054
7347.7,-9.2988,3.2039
7359.4,-6.7571,2.3073
7371.1,-0.43683,3.9848
7382.8,-2.8932,7.8705
7394.5,-9.8178,7.36
7406.3,-9.3817,4.6206
7418,-9.7418,3.285
7429.7,-8.138,4.6929
7441.4,-7.3869,5.6002
7453.1,-7.0227,7.2716
7464.8,-8.7723,4.0875
7476.6,-7.3769,1.2509
7488.3,-8.4799,-0.39443
7500,-9.4449,1.0609
7511.7,-8.1076,5.1102
7523.4,-10.645,6.6048
7535.2,-9.0665,3.9545
7546.9,-8.6324,4.6104
7558.6,-6.5213,5.4374
7570.3,-6.3738,3.1226
7582,-9.2954,6.4483
7593.8,-13.021,8.2216
7605.5,-11.387,6.5747
7617.2,-9.2022,4.0773
7628.9,-9.0902,5.5425
7640.6,-11.318,5.1767
7652.3,-10.206,3.8905
7664.1,-9.2064,5.2071
7675.8,-7.4896,6.624
7687.5,-6.7179,4.9529
7699.2,-8.0785,7.861
7710.9,-8.8783,6.3556
7722.7,-9.8178,6.351
7734.4,-7.6922,5.1379
7746.1,-8.2879,4.1469
7757.8,-8.4687,4.4894
7769.5,-9.8758,4.8957
7781.3,-7.0425,6.0108
7793,-6.7002,6.278
7804.7,-9.3217,4.0805
7816.4,-9.4295,6.0462
7828.1,-7.7546,6.5963
7839.8,-10.646,3.6027
7851.6,-11.02,3.9034
7863.3,-10.888,1.9223
7875,-10.299,4.9686
7886.7,-8.1527,5.1822
7898.4,-7.5237,4.6939
7910.2,-9.8063,4.0036
7921.9,-10.086,4.4438
7933.6,-6.4521,5.7152
7945.3,-9.2729,4.6149
7957,-14.2,3.3405
7968.8,-9.9916,4.1663
7980.5,-11.162,3.9419
7992.2,-11.68,5.9049
8003.9,-12.951,4.741
8015.6,-10.577,4.0896
8027.3,-9.4465,5.6736
8039.1,-8.6621,7.0372
8050.8,-6.6986,6.2828
8062.5,-9.4536,4.1986
8074.2,-9.2024,2.2056
8085.9,-9.6995,4.2962
8097.7,-10.119,6.1916
8109.4,-10.513,7.3576
8121.1,-7.8024,8.0967
8132.8,-7.2105,7.6774
8144.5,-8.8862,5.9784
8156.3,-8.2667,4.9608
8168,-10.188,6.0594
8179.7,-11.16,5.5631
8191.4,-9.2371,2.2092
8203.1,-7.5031,2.2631
8214.8,-7.9434,2.0864
8226.6,-10.042,2.2714
8238.3,-12.242,3.5505
8250,-12.031,3.8788
8261.7,-7.9044,3.451
8273.4,-7.0452,1.8791
8285.2,-6.8017,3.6481
8296.9,-6.739,4.5311
8308.6,-4.9569,4.7745
8320.3,-6.4912,3.6208
8332,-7.9969,1.313
8343.8,-8.0223,1.1938
8355.5,-9.1199,2.1109
8367.2,-11.564,1.5689
8378.9,-12.55,4.0979
8390.6,-9.3632,4.8215
8402.3,-8.9038,3.3346
8414.1,-9.1132,4.255
8425.8,-9.0822,2.2717
8437.5,-10.309,2.2471
8449.2,-9.3982,4.4038
8460.9,-8.8585,3.6892
8472.7,-12.018,2.4442
8484.4,-11.496,2.819
8496.1,-10.949,3.255
8507.8,-10.996,4.5159
8519.5,-8.0178,3.2199
8531.3,-8.1122,3.2678
8543,-8.7129,4.5891
8554.7,-9.1958,3.8853
8566.4,-10.465,4.9041
8578.1,-9.3019,7.5304
8589.8,-6.361,6.4254
8601.6,-4.8172,5.2137
8613.3,-6.6318,4.1021
8625,-9.6142,2.524
8636.7,-10.535,0.80716
8648.4,-11.337,3.5854
8660.2,-11.924,3.6373
8671.9,-12.006,2.1458
8683.6,-10.556,2.5474
8695.3,-8.384,3.6711
8707,-8.1691,3.3288
8718.8,-10.201,2.4316
8730.5,-10.755,2.2152
8742.2,-10.814,3.9143
8753.9,-10.414,3.014
8765.6,-9.8598,1.631
8777.3,-9.2297,4.2938
8789.1,-11.994,5.4241
8800.8,-10.805,3.814
8812.5,-9.9476,-0.32173
8824.2,-7.8476,0.34879
8835.9,-8.0241,1.8516
8847.7,-10.842,3.2128
8859.4,-9.7236,2.6682
8871.1,-12.111,1.894
8882.8,-10.816,5.7935
8894.5,-12.697,4.6009
8906.3,-11.251,2.0032
8918,-10.539,0.60302
8929.7,-12.369,-4.9971
8941.4,-12.296,0.35502
8953.1,-8.8577,2.1532
8964.8,-7.7908,3.5332
8976.6,-10.984,4.0476
8988.3,-13.216,2.9774
9000,-12.453,3.1333
9011.7,-11.69,5.1848
9023.4,-10.34,3.5517
9035.2,-10.619,0.91374
9046.9,-9.8362,1.5397
9058.6,-11.578,2.1635
9070.3,-11.181,1.916
9082,-10.156,2.2243
9093.8,-9.9871,2.4471
9105.5,-7.0425,3.4534
9117.2,-9.657,6.8794
9128.9,-12.593,5.5422
9140.6,-11.488,4.1185
9152.3,-10.523,2.8149
9164.1,-9.9663,4.0613
9175.8,-7.3075,3.078
9187.5,-8.55,2.8756
9199.2,-9.5985,2.4297
9210.9,-9.5054,2.686
9222.7,-10.391,0.60606
9234.4,-7.6803,1.0401
9246.1,-9.1398,2.298
9257.8,-10.63,0.96927
9269.5,-12.151,0.84558
9281.3,-12.518,1.2643
9293,-11.234,3.1898
9304.7,-8.8855,3.2736
9316.4,-8.788,2.3122
9328.1,-9.6415,-1.0689
9339.8,-12.098,0.80009
9351.6,-10.555,3.3047
9363.3,-8.0013,2.0645
9375,-8.5379,2.3165
9386.7,-8.8602,1.1622
9398.4,-11.041,2.1796
9410.2,-11.305,2.6721
9421.9,-10.771,2.435
9433.6,-9.7752,1.0196
9445.3,-12.304,1.7594
9457,-12.865,1.8134
9468.8,-12.556,3.254
9480.5,-10.033,4.2183
9492.2,-10.997,1.1802
9503.9,-11.239,4.36
9515.6,-9.5298,4.8475
9527.3,-8.4648,4.2726
9539.1,-8.4135,3.8874
9550.8,-10.464,2.4761
9562.5,-12.518,0.74118
9574.2,-10.334,2.3173
9585.9,-13.115,1.5868
9597.7,-8.0985,-0.47394
9609.4,-8.3413,0.74723
9621.1,-9.8042,0.9332
9632.8,-10.132,3.2124
9644.5,-11.367,1.1241
9656.3,-10.686,0.4856
9668,-10.252,3.387
9679.7,-11.246,1.196
9691.4,-10.251,2.6526
9703.1,-8.5259,5.3033
9714.8,-10.199,5.8647
9726.6,-11.07,5.863
9738.3,-9.8805,4.6483
9750,-10.052,0.7397
9761.7,-13.111,-1.3844
9773.4,-14.286,3.1456
9785.2,-11.566,2.0894
9796.9,-11.146,-0.65133
9808.6,-13.911,0.59556
9820.3,-14.801,0.13799
9832,-10.769,-0.0047852
9843.8,-7.6004,1.9542
9855.5,-8.165,3.3336
9867.2,-10.535,2.6024
9878.9,-12.244,1.1351
9890.6,-14.487,2.3096
9902.3,-15.597,1.7534
9914.1,-14.219,2.6818
9925.8,-13.87,-0.85446
9937.5,-11.12,-2.3589
9949.2,-12.718,0.0047875
9960.9,-11.748,1.11
9972.7,-11.917,2.6559
9984.4,-14.133,2.7983
9996.1,-12.846,1.9674
10008,-13.508,-0.53115
10020,-13.772,-0.57661
10031,-13.19,-0.84358
10043,-13.302,0.22335
10055,-14.154,-1.6769
10066,-14.069,-0.51655
10078,-9.6449,1.3694
10090,-10.314,1.3895
10102,-13.481,1.0336
10113,-10.584,1.2947
10125,-12.22,0.40534
10137,-12.958,-0.063845
10148,-12.209,-2.4789
10160,-12.098,-1.0399
10172,-11.456,0.4219
10184,-11.795,0.022178
10195,-9.7006,-0.86623
10207,-11.214,-0.60447
10219,-15.379,-2.2287
10230,-13.838,-1.648
10242,-11.005,-2.1771
10254,-11.583,0.27127
10266,-11.188,1.1266
10277,-10.254,-0.63923
10289,-12.532,-1.6298
10301,-14.272,-0.90119
10313,-11.894,-0.64387
10324,-13.184,-0.12611
10336,-14.163,0.014091
10348,-14.213,-0.20665
10359,-12.441,-0.4955
10371,-10.477,-0.20112
10383,-10.293,-0.31719
10395,-9.907,0.5447
10406,-9.8799,0.19358
10418,-9.6583,0.19569
10430,-10.967,-0.25235
10441,-12.334,-0.52579
10453,-12.062,1.8622
10465,-10.807,-1.9284
10477,-11.324,-1.5902
10488,-10.393,-0.076635
10500,-8.3936,0.42853
10512,-13.549,1.716
10523,-12.275,2.6598
10535,-14.054,1.169
10547,-15.921,1.4197
10559,-13.41,1.9962
10570,-13.645,0.32242
10582,-11.499,-1.8528
10594,-9.8473,-0.98286
10605,-12.571,0.6379
10617,-14.169,0.47005
10629,-10.069,1.1633
10641,-9.5139,2.3085
10652,-10.12,2.174
10664,-10.999,1.4406
10676,-13.311,1.1597
10688,-11.518,-0.4133
10699,-14.019,-1.4138
10711,-11.317,-0.91738
10723,-10.556,0.89463
10734,-11.085,1.4968
10746,-11.991,0.66248
10758,-12.13,-0.041627
10770,-12.946,3.1031
10781,-11.759,3.8582
10793,-9.6315,0.57326
10805,-8.4448,1.889
10816,-7.9986,1.1613
10828,-9.8726,-3.4694
10840,-10.136,-1.3654
10852,-11.83,0.18438
10863,-15.515,-0.21223
10875,-14.859,0.33768
10887,-14.88,-2.538
10898,-16.455,-1.5668
10910,-13.738,0.61917
10922,-10.974,-0.018667
10934,-11.393,-2.3808
10945,-9.1469,0.69499
10957,-10.582,-0.36033
10969,-15.348,-0.57988
10980,-11.615,-1.3913
10992,-10.91,-1.5206
11004,-12.565,-0.48461
11016,-12.281,-3.1984
11027,-10.437,-3.3617
11039,-13.278,-0.049301
11051,-11.704,0.21839
11063,-6.6094,-0.78026
11074,-8.7209,1.526
11086,-9.2973,1.9529
11098,-11.481,0.55574
11109,-10.432,-0.31465
11121,-11.201,-0.50466
11133,-15.177,2.2754
11145,-14.712,2.51
11156,-12.463,-0.21511
11168,-13.198,-0.5202
11180,-14.132,0.69846
11191,-14.878,0.8139
11203,-13.006,0.38002
11215,-12.063,0.64475
11227,-11.739,0.3463
11238,-12.473,0.57703
11250,-11.121,1.1952
11262,-13.781,0.73098
11273,-11.898,0.19304
11285,-14.777,1.3299
11297,-14.683,0.2893
11309,-12.665,-0.86685
11320,-10.772,0.49158
11332,-11.067,1.7662
11344,-11.709,1.2213
11355,-16.933,0.82763
11367,-15.315,1.7879
11379,-14.705,1.1268
11391,-13.095,0.51519
11402,-14.161,-1.2582
11414,-11.48,0.08112
11426,-11.624,-1.8754
11438,-13.363,-1.3288
11449,-13.196,-0.75704
11461,-12.161,-2.8309
11473,-10.757,1.0897
11484,-13.919,3.133
11496,-11.158,1.8248
11508,-10.163,0.30235
11520,-14.296,-2.3678
11531,-10.212,-2.1326
11543,-10.011,-1.7679
11555,-12.621,-0.2932
11566,-13.749,1.3032
11578,-10.736,-1.5366
11590,-10.358,-2.5857
11602,-14.221,0.79686
11613,-12.371,1.1551
11625,-12.006,-1.0755
11637,-13.872,-2.8063
11648,-13.822,-2.1554
11660,-15.46,-1.6107
11672,-16.534,-1.6653
11684,-17.262,0.78625
11695,-17.211,0.91073
11707,-17.123,-1.5734
11719,-17.219,-2.6905
11730,-13.728,-2.2926
11742,-9.9604,1.0801
11754,-13.535,0.79547
11766,-11.199,-0.23478
11777,-10.88,-0.19702
11789,-12.25,-1.0944
11801,-12.752,-1.0084
11813,-14.372,-3.6434
11824,-12.94,-6.8296
11836,-12.087,-1.3312
11848,-12.754,-0.35442
11859,-12.208,-4.0095
11871,-14.142,-0.60919
11883,-14.063,1.1629
11895,-14.883,-0.85672
11906,-15.391,-1.1703
11918,-14.722,2.1985
11930,-15.589,1.5025
11941,-17.501,-3.7423
11953,-13.209,-1.2762
11965,-9.7784,2.0826
11977,-11.95,1.3196
11988,-14.789,-0.5438
12000,-13.441,-0.18933
12012,-13.708,-0.63218
12023,-16.911,-3.4965
12035,-16.538,-3.4831
12047,-16.201,-2.8897
12059,-14.937,0.23575
12070,-11.292,-0.55071
12082,-10.528,0.46114
12094,-13.168,1.272
12105,-15.297,-1.4414
12117,-14.818,0.2416
12129,-12.68,-1.2654
12141,-11.693,-1.9747
12152,-11.333,-3.3421
12164,-13.909,-1.7247
12176,-12.899,-2.0588
12188,-14.577,-0.77409
12199,-12.792,-1.3735
12211,-11.786,-1.9364
12223,-12.626,-1.185
12234,-13.99,0.75349
12246,-13.693,-0.99989
12258,-14.151,-2.8439
12270,-13.621,-2.2094
12281,-12.928,0.094052
12293,-15.297,0.94534
12305,-11.512,-0.17232
12316,-10.1,-2.6019
12328,-11.011,-1.2636
12340,-10.617,1.9392
12352,-13.442,2.9563
12363,-12.019,2.6295
12375,-11.243,2.7149
12387,-11.491,2.7078
12398,-12.439,0.59478
12410,-14.671,-0.80606
12422,-14.692,-0.62853
12434,-13.568,-0.59997
12445,-13.523,-2.4405
12457,-14.951,-3.5509
12469,-14.36,-2.5384
12480,-12.092,-4.7485
12492,-10.071,-2.7194
12504,-11.248,0.597
12516,-14.422,-0.67422
12527,-13.965,-3.377
12539,-11.532,-2.6651
12551,-11.692,-0.40282
12563,-15.377,0.44624
12574,-13.108,-0.18426
12586,-14.198,0.35604
12598,-14.578,-0.25584
12609,-14.522,-1.2659
12621,-14.784,-0.64323
12633,-15.342,1.0881
12645,-14.41,0.30611
12656,-13.161,0.1264
12668,-13.296,1.0297
12680,-12.281,0.62827
12691,-12.052,1.7166
12703,-12.963,1.7614
12715,-13.393,-0.38228
12727,-13.32,0.7288
12738,-13.929,-0.11318
12750,-12.626,-0.92494
12762,-11.363,0.63796
12773,-10.978,2.2583
12785,-11.673,-0.036658
12797,-14.557,-6.0216
12809,-12.153,-3.8712
12820,-11.929,0.66525
12832,-11.542,-1.159
12844,-9.8828,-2.0268
12855,-13.324,-0.54456
12867,-12.781,0.017708
12879,-12.102,-1.0566
12891,-14.635,0.31309
12902,-16.499,-3.0614
12914,-12.551,-3.8061
12926,-12.583,-3.713
12938,-13.842,0.46955
12949,-15.083,0.96855
12961,-15.026,-0.92341
12973,-13.538,-3.6996
12984,-13.747,-0.90429
12996,-13.328,-0.50456
13008,-11.854,-0.90392
13020,-11.517,-3.9578
13031,-12.06,-3.4058
13043,-14.015,-0.85697
13055,-16.018,-2.6224
13066,-12.7,-2.3276
13078,-13.962,-4.6427
13090,-14.321,-3.8219
13102,-14.293,-1.3873
13113,-11.615,-1.1453
13125,-10.878,-2.079
13137,-14.121,-1.9451
13148,-17.457,-1.7505
13160,-13.751,-1.9861
13172,-12.904,-3.3181
13184,-14.218,-6.9024
13195,-16.247,-4.6927
13207,-12.991,-1.8896
13219,-14.762,-3.4426
13230,-14.621,-6.2231
13242,-14.995,-2.7314
13254,-14.535,-0.33049
13266,-13.537,0.50073
13277,-13.06,-0.42532
13289,-13.474,-2.0983
13301,-12.931,-0.90678
13313,-15.734,-0.81331
13324,-14.438,-1.5452
13336,-14.152,-4.0901
13348,-13.51,-4.3941
13359,-15.477,-5.3465
13371,-15.855,-4.3913
13383,-13.575,-4.0013
13395,-16.58,-0.026255
13406,-16.097,-1.7936
13418,-14.026,-3.6213
13430,-13.584,-3.5747
13441,-13.537,-2.2929
13453,-12.615,-2.0849
13465,-12.266,-3.1906
13477,-13.634,-2.7877
13488,-12.575,-1.5161
13500,-14.537,-2.6582
13512,-12.497,-3.2176
13523,-15.17,-0.7964
13535,-15.889,-1.0159
13547,-13.346,-2.2241
13559,-14.743,-1.7621
13570,-15.716,0.17639
13582,-15.07,-0.48484
13594,-13.502,-1.7526
13605,-14.936,-3.5256
13617,-16.988,-5.2452
13629,-13.543,-2.7896
13641,-13.937,-2.0428
13652,-14.875,-1.7386
13664,-13.31,-2.8587
13676,-18.308,-0.60745
13688,-15.273,-0.44812
13699,-13.316,-5.2734
13711,-14.003,-4.6839
13723,-14.502,-3.7674
13734,-14.454,-5.1286
13746,-16.025,-5.0622
13758,-17.618,-4.4604
13770,-17.617,-5.4646
13781,-15.056,-3.319
13793,-13.758,-0.57303
13805,-12.389,-0.33969
13816,-16,-1.6022
13828,-14.8,-2.1005
13840,-12.63,-2.4663
13852,-13.591,-3.5101
13863,-14.351,-1.9156
13875,-15.934,-3.8047
13887,-15.613,-3.0037
13898,-13.919,-2.6972
13910,-12.773,-4.097
13922,-15.825,-1.8549
13934,-13.423,-3.2958
13945,-13.356,-3.6633
13957,-14.766,-2.7789
13969,-13.834,-3.5011
13980,-15.527,-3.8866
13992,-15.835,-3.602
14004,-16.074,-2.837
14016,-16.293,-5.29
14027,-12.711,-6.2882
14039,-12.541,-4.3243
14051,-15.93,-4.5931
14063,-15.75,-2.9531
14074,-19.071,-1.705
14086,-17.77,-3.5581
14098,-17.264,-4.5701
14109,-17.668,-4.7031
14121,-18.125,-1.5219
14133,-16.685,-3.5922
14145,-15.363,-7.1375
14156,-15.089,-1.5552
14168,-14.015,-0.85579
14180,-15.798,-2.9269
14191,-18.989,-3.4188
14203,-17.327,-3.16
14215,-14.919,-6.1059
14227,-15.619,-4.7982
14238,-15.252,-5.018
14250,-17.503,-4.4772
14262,-16.655,-4.501
14273,-18,-4.2781
14285,-17.043,-2.9164
14297,-15.209,-2.8565
14309,-15.871,-4.9876
14320,-16.809,-5.5408
14332,-16.172,-3.3489
14344,-16.555,-2.8577
14355,-15.206,-4.4395
14367,-14.771,-3.1666
14379,-13.495,-2.3461
14391,-12.787,-4.8539
14402,-15.763,-3.5791
14414,-18.467,-2.6241
14426,-18.171,-4.4987
14438,-16.958,-3.3817
14449,-17.647,-3.4884
14461,-16.988,-3.206
14473,-15.906,-4.2526
14484,-13.661,-3.345
14496,-16.997,-3.2975
14508,-16.901,-3.5556
14520,-17.269,-3.1869
14531,-20.517,-4.4634
14543,-16.37,-2.1991
14555,-13.892,-2.9319
14566,-12.661,-5.1
14578,-12.227,-6.9045
14590,-14.842,-4.231
14602,-15.519,-2.9294
14613,-17.747,-3.5801
14625,-17.835,-5.045
14637,-16.588,-4.3564
14648,-17.076,-3.6521
14660,-15.946,-2.6624
14672,-14.274,-3.5762
14684,-16.898,-3.5974
14695,-17.236,-3.9489
14707,-14.854,-5.4749
14719,-15.108,-4.1651
14730,-17.168,-4.602
14742,-14.55,-5.4907
14754,-13.814,-8.8865
14766,-15.389,-3.8939
14777,-20.18,-3.0023
14789,-16.998,-3.2784
14801,-14.762,-2.8033
14813,-17.602,-3.964
14824,-20.184,-4.3183
14836,-19.405,-3.5495
14848,-18.205,-5.5953
14859,-18.907,-5.9707
14871,-16.908,-5.403
14883,-16.22,-4.5051
14895,-16.148,-3.7007
14906,-15.406,-3.9922
14918,-14.191,-3.9414
14930,-16.114,-2.31
14941,-15.806,-3.6117
14953,-17.925,-4.7812
14965,-16.92,-1.1496
14977,-17.241,-1.9583
14988,-18.224,-4.8553
15000,-18.019,-6.0268
15012,-16.742,-4.5616
15023,-16.254,-4.5939
15035,-16.486,-4.9912
15047,-17.518,-4.1594
15059,-19.469,-5.5225
15070,-17.869,-8.3317
15082,-15.541,-6.7557
15094,-16.609,-4.1918
15105,-18.501,-3.3996
15117,-18.721,-4.1912
15129,-20.115,-4.6302
15141,-17.972,-4.8537
15152,-17.737,-6.649
15164,-19.77,-3.3412
15176,-18.002,-0.7145
15188,-15.881,-0.042779
15199,-17.234,-2.9578
15211,-18.64,-4.9183
15223,-17.584,-4.0673
15234,-17.545,-1.9904
15246,-15.885,-1.2742
15258,-17.733,-3.671
15270,-17.592,-5.0832
15281,-16.852,-4.3082
15293,-18.824,-3.2814
15305,-16.862,-3.735
15316,-18.846,-3.819
15328,-17.378,-3.8922
15340,-19.374,-4.0765
15352,-20.402,-4.3068
15363,-19.701,-6.4503
15375,-20.062,-4.3181
15387,-18.794,-3.4881
15398,-17.813,-3.6144
15410,-16.037,-2.7777
15422,-17.212,-1.7017
15434,-19.783,-3.8226
15445,-21.452,-4.2484
15457,-22.528,-7.1134
15469,-20.777,-4.8142
15480,-19.686,-3.033
15492,-16.5,-2.123
15504,-16.831,-2.5235
15516,-22.955,-1.5775
15527,-21.171,-3.1347
15539,-18.358,-6.7109
15551,-20.278,-6.4141
15563,-19.655,-5.8708
15574,-18.261,-3.8754
15586,-16.779,-2.9864
15598,-17.36,-3.8462
15609,-20.325,-3.8934
15621,-18.308,-5.8973
15633,-19.179,-4.2441
15645,-20.03,-4.3211
15656,-18.149,-4.8159
15668,-18.466,-6.2342
15680,-20.631,-6.7326
15691,-19.176,-5.8542
15703,-17.922,-2.7057
15715,-17.477,-3.4935
15727,-18.094,-4.5143
15738,-17.047,-3.2746
15750,-16.46,-1.5731
15762,-15.307,-5.1519
15773,-16.348,-4.448
15785,-18.519,-2.9272
15797,-15.584,-5.8523
15809,-17.266,-6.3102
15820,-19.551,-3.8692
15832,-17.913,-5.0179
15844,-16.517,-5.5273
15855,-16.485,-4.8939
15867,-17.306,-4.3797
15879,-19.156,-5.3236
15891,-20.086,-5.9401
15902,-19.406,-4.7137
15914,-17.975,-5.7971
15926,-16.791,-2.8818
15938,-19.333,-3.4318
15949,-22.11,-5.5435
15961,-21.604,-4.1966
15973,-22.047,-2.0867
15984,-20.869,-3.2911
15996,-22.389,-4.115
16008,-21.826,-4.6945
16020,-19.764,-5.3166
16031,-20.686,-3.6044
16043,-19.018,-2.1274
16055,-16.29,-2.5706
16066,-15.93,-2.8556
16078,-17.222,-2.2741
16090,-16.956,-6.0119
16102,-21.342,-5.0927
16113,-19.818,-4.536
16125,-19.435,-4.6614
16137,-17.385,-4.2612
16148,-17.958,-2.6694
16160,-18.429,-5.7751
16172,-19.248,-4.821
16184,-16.287,-2.1154
16195,-14.835,-3.0554
16207,-15.29,-3.0323
16219,-19.412,-6.0095
16230,-21.142,-4.596
16242,-18.585,-4.4879
16254,-22.674,-6.3861
16266,-22.577,-5.9934
16277,-20.905,-7.1467
16289,-21.255,-6.6683
16301,-19.748,-1.8413
16313,-18.234,-2.6282
16324,-21.165,-3.9511
16336,-22.562,-4.9943
16348,-21.111,-6.3289
16359,-22.123,-8.4691
16371,-21.575,-6.2489
16383,-17.376,-6.2495
16395,-17.023,-4.8182
16406,-16.383,-5.547
16418,-20.201,-5.5694
16430,-24.243,-3.2526
16441,-23.099,-3.4911
16453,-22.329,-3.7326
16465,-19.056,-2.907
16477,-19.058,-3.9852
16488,-21.779,-3.7734
16500,-19.903,-2.4914
16512,-22.075,-3.4235
16523,-22.881,-4.2648
16535,-21.437,-4.7247
16547,-18.692,-5.3467
16559,-21.15,-4.1822
16570,-20.929,-6.3205
16582,-19.985,-8.4818
16594,-19.772,-4.7676
16605,-16.93,-4.0693
16617,-17.401,-4.7816
16629,-18.405,-4.9301
16641,-16.896,-5.0885
16652,-20.217,-4.5578
16664,-20.319,-3.6673
16676,-17.762,-7.2547
16688,-17.917,-7.322
16699,-18.038,-6.6115
16711,-20.626,-7.4228
16723,-23.808,-8.2976
16734,-20.231,-7.875
16746,-20.352,-5.0479
16758,-19.731,-4.8385
16770,-21.962,-6.4304
16781,-19.746,-7.3429
16793,-20.215,-4.1881
16805,-20.13,-3.0563
16816,-20.35,-2.9867
16828,-20.907,-4.3251
16840,-19.231,-5.2503
16852,-21.323,-4.8143
16863,-22.639,-7.7877
16875,-22.564,-8.3135
16887,-22.553,-5.1631
16898,-20.108,-5.6391
16910,-20.577,-5.4725
16922,-19.787,-5.2038
16934,-23.338,-4.5569
16945,-23.007,-4.5354
16957,-20.165,-5.0644
16969,-19.672,-7.798
16980,-20.618,-9.3421
16992,-20.311,-8.8935
17004,-20.091,-5.2931
17016,-19.107,-3.7336
17027,-20.212,-3.6466
17039,-23.265,-5.1547
17051,-20.898,-7.1617
17063,-23.559,-6.676
17074,-24.974,-6.4555
17086,-27.311,-5.0109
17098,-24.892,-4.8083
17109,-20.719,-4.0217
17121,-20.923,-4.9529
17133,-22.498,-5.5233
17145,-21.392,-5.1252
17156,-19.208,-7.4974
17168,-19.118,-7.5249
17180,-19.624,-8.1821
17191,-21.17,-11.559
17203,-20.462,-8.8674
17215,-19.825,-7.9608
17227,-19.384,-5.9891
17238,-18.58,-7.1583
17250,-20.945,-8.3631
17262,-21.12,-8.0968
17273,-20.136,-4.8604
17285,-20.266,-4.7581
17297,-18.627,-7.3775
17309,-20.369,-7.7924
17320,-21.396,-5.7139
17332,-21.426,-4.1425
17344,-20.408,-4.0371
17355,-19.099,-3.5945
17367,-19.986,-5.3179
17379,-25.655,-5.7576
17391,-22.648,-5.8596
17402,-19.649,-4.556
17414,-20.37,-4.7339
17426,-22.48,-6.9992
17438,-21.696,-7.1601
17449,-21.638,-8.0445
17461,-19.253,-7.3099
17473,-20.799,-6.6933
17484,-21.289,-6.2811
17496,-25.138,-4.5557
17508,-26.331,-6.4091
17520,-24.884,-5.2001
17531,-22.82,-6.3944
17543,-21.376,-5.6792
17555,-20.909,-5.2189
17566,-23.614,-5.9993
17578,-23.666,-7.6251
17590,-20.248,-7.9447
17602,-19.807,-6.8402
17613,-19.726,-6.1947
17625,-18.858,-4.9082
17637,-23.573,-4.7711
17648,-21.687,-6.5526
17660,-21.09,-7.1434
17672,-21.609,-4.9012
17684,-20.983,-3.8992
17695,-21.105,-6.5596
17707,-20.72,-6.1645
17719,-23.649,-6.293
17730,-22.16,-10.167
17742,-20.53,-11.386
17754,-21.984,-9.1249
17766,-25.152,-10.162
17777,-24.258,-6.0781
17789,-24.1,-6.398
17801,-25.253,-8.5464
17813,-21.84,-5.5401
17824,-19.341,-4.8142
17836,-20.01,-5.7122
17848,-21.488,-5.6871
17859,-20.406,-6.3651
17871,-19.913,-6.4147
17883,-23.752,-7.2997
17895,-23.506,-8.1324
17906,-22.089,-6.7532
17918,-22.101,-6.6258
17930,-19.693,-7.0704
17941,-19.761,-5.9619
17953,-23.602,-5.3694
17965,-24.124,-7.1215
17977,-24.338,-5.4362
17988,-22.618,-4.3737
18000,-22.158,-5.5485
18012,-20.099,-6.2916
18023,-18.732,-5.4937
18035,-21.699,-7.4753
18047,-21.893,-8.2746
18059,-24.03,-9.5892
18070,-26.714,-9.8351
18082,-25.307,-7.6592
18094,-20.941,-6.4461
18105,-21.628,-7.3796
18117,-21.17,-7.994
18129,-21.718,-6.4966
18141,-22.533,-7.0679
18152,-23.167,-7.0577
18164,-24.297,-7.6762
18176,-22.236,-6.212
18188,-21.333,-5.8403
18199,-22.476,-9.4216
18211,-26.021,-9.755
18223,-27.837,-4.9965
18234,-23.091,-6.6224
18246,-20.112,-9.7137
18258,-21.171,-11.048
18270,-23.849,-10.133
18281,-23.573,-9.0498
18293,-24.353,-8.0817
18305,-19.657,-8.4897
18316,-20.111,-5.824
18328,-21.792,-5.9273
18340,-22.028,-5.4909
18352,-22.682,-8.6966
18363,-23.346,-9.3351
18375,-24.179,-7.9696
18387,-23.597,-8.8136
18398,-23.066,-6.763
18410,-23.334,-5.2865
18422,-22.48,-5.5522
18434,-22.114,-8.7224
18445,-23.687,-6.3136
18457,-24.614,-5.3338
18469,-21.805,-5.38
18480,-21.705,-5.5756
18492,-23.924,-7.9582
18504,-21.993,-9.5193
18516,-23.321,-10.321
18527,-23.762,-7.1905
18539,-24.098,-5.3753
18551,-21.709,-5.2488
18563,-21.294,-4.9344
18574,-22.494,-6.042
18586,-21.664,-8.2043
18598,-21.795,-10.539
18609,-25.181,-9.9421
18621,-23.303,-8.9678
18633,-22.59,-7.0369
18645,-23.785,-8.0658
18656,-24.527,-10.647
18668,-28.49,-8.3615
18680,-24.28,-6.8343
18691,-23.263,-6.6272
18703,-20.46,-8.1437
18715,-25.594,-9.2603
18727,-23.698,-8.8114
18738,-21.23,-6.8263
18750,-24.659,-7.3577
18762,-24.389,-7.3819
18773,-21.021,-7.3537
18785,-23.604,-9.1049
18797,-22.979,-6.0062
18809,-24.596,-4.4992
18820,-24.857,-5.3012
18832,-22.959,-9.3228
18844,-21.458,-10.512
18855,-21.713,-10.112
18867,-22.479,-8.3668
18879,-24.165,-8.2692
18891,-20.316,-7.1356
18902,-21.16,-8.5453
18914,-22.709,-9.8163
18926,-23.827,-7.1462
18938,-24.133,-5.0044
18949,-20.651,-6.6467
18961,-22.538,-6.8
18973,-23.745,-5.2977
18984,-21.981,-6.6529
18996,-19.457,-9.0149
19008,-19.488,-7.9136
19020,-24.237,-8.3716
19031,-24.982,-10.886
19043,-24.777,-10.369
19055,-22.138,-8.7413
19066,-20.893,-7.9789
19078,-21.282,-8.3114
19090,-23.165,-7.9215
19102,-25.533,-9.5105
19113,-25.592,-10.63
19125,-22.402,-8.5278
19137,-23.126,-5.0888
19148,-26.333,-6.7854
19160,-25.41,-8.1759
19172,-23.451,-7.6684
19184,-23.714,-7.7011
19195,-25.197,-8.3925
19207,-22.862,-9.1003
19219,-20.853,-11.196
19230,-21.043,-8.3772
19242,-22.975,-7.3015
19254,-23.802,-8.8001
19266,-24.524,-10.693
19277,-28.519,-7.2017
19289,-26.957,-8.8563
19301,-23.425,-9.2008
19313,-24.352,-9.4088
19324,-26.019,-9.0193
19336,-25.595,-11.231
19348,-26.953,-12.531
19359,-23.354,-11.698
19371,-24.091,-8.0764
19383,-25.227,-7.3686
19395,-23.591,-7.8664
19406,-23.136,-7.2828
19418,-22.662,-7.8281
19430,-24.474,-8.9601
19441,-24.299,-10.453
19453,-23.8,-9.1099
19465,-24.387,-10.421
19477,-23.685,-12.224
19488,-22.959,-13.004
19500,-23.458,-13.108
19512,-21.43,-11.052
19523,-24.575,-13.014
19535,-23.645,-14.918
19547,-23.758,-9.3463
19559,-21.952,-7.5447
19570,-20.031,-9.1027
19582,-22.152,-8.2543
19594,-21.934,-8.9054
19605,-23.217,-10.769
19617,-26.102,-10.783
19629,-24.999,-8.3516
19641,-23.762,-8.04
19652,-24.012,-9.2894
19664,-25.642,-9.05
19676,-25.035,-8.8451
19688,-24.683,-6.6571
19699,-26.352,-8.8815
19711,-28.155,-10.115
19723,-24.253,-9.1265
19734,-25.196,-6.9185
19746,-28.8,-9.7923
19758,-26.26,-8.4947
19770,-23.95,-7.8588
19781,-26.04,-9.1672
19793,-24.673,-5.8562
19805,-24.715,-4.9203
19816,-27.859,-5.5745
19828,-26.66,-8.4574
19840,-24.818,-7.6679
19852,-25.535,-9.8136
19863,-26.451,-10.845
19875,-25.26,-11.098
19887,-24.231,-9.2999
19898,-25.537,-9.0603
19910,-27.674,-6.9737
19922,-25.326,-4.5684
19934,-23.277,-5.5511
19945,-23.935,-8.5881
19957,-23.051,-8.5296
19969,-22.692,-7.4134
19980,-25.821,-10.42
19992,-24.966,-9.6344
20004,-26.005,-8.1337
20016,-27.93,-8.7949
20027,-25.419,-9.9508
20039,-24.874,-9.2359
20051,-27.067,-9.1385
20063,-25.099,-8.9044
20074,-26.653,-7.9433
20086,-27.575,-7.484
20098,-29.041,-7.2372
20109,-29.002,-8.3175
20121,-30.388,-7.0918
20133,-28.843,-7.3705
20145,-26.23,-9.0844
20156,-27.661,-11.003
20168,-28.638,-11.034
20180,-25.279,-8.2838
20191,-24.361,-9.6471
20203,-24.708,-12.184
20215,-24.446,-12.009
20227,-24,-8.6187
20238,-23.802,-9.0038
20250,-25.313,-10.388
20262,-27.128,-9.1234
20273,-26.291,-6.4858
20285,-26.232,-7.4399
20297,-25.545,-10.878
20309,-25.187,-9.3209
20320,-26.986,-7.6909
20332,-25.888,-8.7326
20344,-25.916,-8.7792
20355,-26.346,-9.2494
20367,-25.508,-10.009
20379,-25.948,-9.8618
20391,-24.999,-10.975
20402,-23.261,-10.057
20414,-24.929,-11.088
20426,-26.13,-11.298
20438,-22.709,-9.693
20449,-25.875,-8.9014
20461,-28.413,-9.5175
20473,-26.71,-9.5892
20484,-25.485,-10.598
20496,-28.249,-9.3946
20508,-27.331,-8.0909
20520,-25.934,-9.7699
20531,-26.249,-8.4539
20543,-27.031,-8.5138
20555,-28.49,-5.5411
20566,-28.286,-5.928
20578,-25.212,-8.2676
20590,-25.215,-7.8545
20602,-24.598,-7.699
20613,-23.147,-7.3156
20625,-22.616,-7.4218
20637,-24.338,-8.337
20648,-24.855,-10.605
20660,-27.218,-8.5368
20672,-27.243,-9.9178
20684,-26.78,-10.101
20695,-26.654,-8.8336
20707,-26.123,-8.8796
20719,-26.209,-6.9873
20730,-24.469,-7.4124
20742,-26.714,-9.3001
20754,-27.858,-11.192
20766,-27.046,-9.5687
20777,-23.261,-7.9781
20789,-24.462,-10.529
20801,-28.962,-11.102
20813,-27.746,-9.7375
20824,-25.186,-9.5503
20836,-25.444,-9.7024
20848,-27.33,-8.2815
20859,-25.835,-8.0606
20871,-24.189,-7.7594
20883,-24.619,-8.0271
20895,-24.182,-12.082
20906,-25.317,-12.587
20918,-26.895,-11.179
20930,-25.362,-9.6596
20941,-28.084,-8.1452
20953,-25.711,-9.7616
20965,-26.657,-9.683
20977,-26.545,-9.4575
20988,-26.526,-8.0352
21000,-27,-7.9017
21012,-26.889,-7.9366
21023,-26.338,-9.3717
21035,-26.443,-7.9148
21047,-26.212,-7.8286
21059,-28.17,-10.058
21070,-30.772,-11.623
21082,-23.31,-12.445
21094,-23.915,-13.048
21105,-26.392,-12.261
21117,-22.639,-11.565
21129,-23.381,-11.959
21141,-26.553,-8.6678
21152,-25.855,-8.2004
21164,-28.41,-9.6437
21176,-24.017,-9.0118
21188,-24.883,-10.612
21199,-28.171,-9.9153
21211,-28.63,-8.7655
21223,-25.394,-10.348
21234,-27.053,-8.6501
21246,-23.158,-8.0358
21258,-25.173,-8.093
21270,-27.628,-9.5331
21281,-27.866,-10.521
21293,-24.985,-8.6634
21305,-26.549,-10.204
21316,-27.026,-12.122
21328,-26.869,-11.031
21340,-28.959,-10.395
21352,-28.147,-8.89
21363,-26.428,-9.5025
21375,-26.851,-9.7911
21387,-28.886,-12.955
21398,-28.716,-12.058
21410,-26.061,-11.855
21422,-25.316,-10.82
21434,-24.622,-9.533
21445,-26.455,-10.299
21457,-28.788,-11.857
21469,-26.679,-10.544
21480,-25.561,-10.837
21492,-27.35,-9.8905
21504,-27.59,-10.442
21516,-27.44,-11.243
21527,-25.494,-9.1073
21539,-25.95,-7.4298
21551,-27.696,-9.5234
21563,-27.515,-10.386
21574,-25.737,-8.3202
21586,-25.959,-8.7011
21598,-25.31,-7.7115
21609,-26.84,-6.5588
21621,-26.479,-8.7478
21633,-25.724,-8.5095
21645,-26.408,-9.8422
21656,-26.536,-12.66
21668,-27.394,-8.9035
21680,-28.065,-9.2525
21691,-27.298,-10.734
21703,-29.314,-10.081
21715,-25.747,-9.5811
21727,-24.446,-9.9068
21738,-25.693,-8.7948
21750,-26.48,-10.63
21762,-29.181,-10.362
21773,-25.903,-10.724
21785,-25.374,-11.319
21797,-28.177,-10.429
21809,-28.848,-8.1339
21820,-27.565,-8.2485
21832,-27.426,-9.7101
21844,-27.443,-9.2943
21855,-28.489,-9.0759
21867,-28.18,-9.8454
21879,-26.022,-12.433
21891,-29.5,-9.2433
21902,-27.932,-9.2613
21914,-29.755,-10.259
21926,-26.478,-10.397
21938,-27.379,-11.083
21949,-27.457,-12.281
21961,-27.246,-10.225
21973,-27.362,-9.5904
21984,-28.158,-10.504
21996,-28.723,-13.791
22008,-28.358,-13.786
22020,-24.465,-9.5818
22031,-26.657,-10.288
22043,-29.363,-10.807
22055,-28.703,-12.211
22066,-27.237,-12.596
22078,-28.783,-12.07
22090,-27.678,-9.9625
22102,-27.203,-7.857
22113,-25.956,-7.7462
22125,-25.85,-8.4366
22137,-26.257,-7.6662
22148,-25.908,-7.8168
22160,-29.201,-8.6912
22172,-31.423,-8.5318
22184,-30.123,-10.205
22195,-28.993,-13.641
22207,-27.932,-12.152
22219,-27.081,-13.116
22230,-29.614,-13.138
22242,-27.869,-11.609
22254,-27.288,-11.213
22266,-27.092,-8.489
22277,-25.148,-7.8676
22289,-26.838,-9.1838
22301,-25.852,-8.8614
22313,-27.497,-9.0708
22324,-27.327,-10.569
22336,-26.414,-12.305
22348,-25.071,-12.162
22359,-25.887,-11.982
22371,-25.506,-7.6236
22383,-28.681,-8.364
22395,-30.26,-8.37
22406,-30.616,-8.6573
22418,-29.137,-6.9332
22430,-30.204,-10.124
22441,-27.125,-12.939
22453,-27.506,-12.457
22465,-30.922,-10.885
22477,-30.849,-10.884
22488,-28.608,-11.743
22500,-29.178,-9.9293
22512,-30.264,-10.45
22523,-29.439,-11.666
22535,-24.985,-9.5506
22547,-23.922,-10.03
22559,-25.69,-8.8707
22570,-28.206,-11.037
22582,-26.958,-12.253
22594,-28.109,-11.471
22605,-26.357,-10.185
22617,-25.575,-8.5684
22629,-28.423,-10.332
22641,-28.955,-14.024
22652,-27.489,-10.455
22664,-26.678,-12.384
22676,-27.683,-13.025
22688,-25.999,-10.423
22699,-27.438,-10.12
22711,-28.538,-10.226
22723,-27.44,-10.434
22734,-28.577,-9.5449
22746,-26.702,-8.8978
22758,-30.679,-11.411
22770,-31.097,-13.03
22781,-25.183,-11.935
22793,-28.602,-9.2177
22805,-29.497,-11.095
22816,-27.185,-9.9143
22828,-26.037,-9.0124
22840,-29.156,-11.46
22852,-27.657,-12.9
22863,-25.351,-10.632
22875,-26.574,-9.0637
22887,-28.127,-8.6278
22898,-26.412,-10.832
22910,-26.836,-10.052
22922,-26.176,-9.1196
22934,-27.863,-10.043
22945,-28.473,-10.953
22957,-27.249,-11.531
22969,-23.901,-11.882
22980,-26.386,-9.4688
22992,-28.372,-8.5204
23004,-28.101,-8.4779
23016,-27.379,-9.0094
23027,-27.854,-11.112
23039,-28.627,-13.56
23051,-28.769,-12.446
23063,-31.045,-11.757
23074,-28.393,-10.745
23086,-25.542,-9.444
23098,-26.579,-8.6163
23109,-28.53,-10.986
23121,-29.065,-10.429
23133,-25.899,-12.09
23145,-27.004,-10.831
23156,-27.836,-10.594
23168,-28.152,-12.535
23180,-25.899,-14.635
23191,-28.396,-12.75
23203,-27.495,-14.622
23215,-27.395,-13.399
23227,-27.844,-12.746
23238,-28.927,-11.72
23250,-32.308,-9.5879
23262,-28.506,-10.143
23273,-28.248,-10.719
23285,-28.854,-8.9927
23297,-29.17,-10.328
23309,-29.398,-12.201
23320,-29.713,-10.926
23332,-31.168,-14.707
23344,-27.392,-13.832
23355,-25.947,-11.552
23367,-28.842,-11.375
23379,-29.491,-10.917
23391,-29.291,-11.948
23402,-27.787,-13.854
23414,-29.531,-12.429
23426,-30.32,-10.934
23438,-28.88,-12.486
23449,-27.861,-11.104
23461,-27.715,-10.927
23473,-26.952,-13.917
23484,-26.603,-12.599
23496,-25.625,-11.178
23508,-24.926,-11.493
23520,-25.94,-13.557
23531,-29.165,-10.828
23543,-29.2,-10.565
23555,-28.386,-10.513
23566,-26.495,-10.071
23578,-30.475,-9.743
23590,-30.317,-9.9815
23602,-27.153,-11.365
23613,-29.81,-11.813
23625,-30.12,-12.942
23637,-28.487,-11.435
23648,-29.506,-9.9766
23660,-28.875,-8.9822
23672,-28.521,-9.212
23684,-29.268,-11.456
23695,-27.54,-11.991
23707,-27.734,-12.41
23719,-25.664,-10.892
23730,-24.479,-10.807
23742,-27.917,-10.884
23754,-27.388,-12.207
23766,-25.546,-11.871
23777,-26.634,-11.908
23789,-27.503,-12.657
23801,-31.329,-12.018
23813,-27.592,-8.3086
23824,-26.911,-8.9195
23836,-29.674,-12.412
23848,-28.183,-13.222
23859,-27.357,-13.237
23871,-27.623,-13.129
23883,-28.497,-13.963
23895,-28.51,-13.001
23906,-29.372,-10.936
23918,-30.288,-11.831
23930,-28.699,-12.635
23941,-29.956,-13.421
23953,-27.474,-11.601
23965,-27.921,-10.528
23977,-27.798,-9.5409
23988,-29.92,-12.14
