FFT,Power Spectrum
Frequency[Hz],Level-L[dB],Level-R[dB]
11.719,-21.509,-24.892
23.438,-1.7981,-4.8429
35.156,-3.5674,-0.63248
46.875,5.1279,1.7558
58.594,5.7837,3.3159
70.313,5.9879,6.2729
82.031,8.1691,8.1045
93.75,9.9686,9.3372
105.47,7.2919,9.0374
117.19,3.0555,9.5717
128.91,13.395,12.108
140.63,16.215,14.053
152.34,11.007,10.622
164.06,3.7755,8.943
175.78,3.5906,10.008
187.5,7.3422,12.17
199.22,10.062,13.107
210.94,9.3073,12.194
222.66,3.9034,12.785
234.38,6.7799,13.399
246.09,7.149,13.606
257.81,7.4451,12.51
269.53,5.1904,12.437
281.25,9.5252,10.848
292.97,7.0787,11.727
304.69,6.1365,10.674
316.41,5.4023,13.961
328.13,3.1992,14.833
339.84,4.5209,14.305
351.56,7.1552,13.368
363.28,8.8228,11.537
375,4.8017,12.885
386.72,6.4264,16.189
398.44,8.3855,13.828
410.16,4.6538,12.363
421.88,5.7689,14.167
433.59,7.4405,15.809
445.31,3.108,16.2
457.03,4.488,12.755
468.75,5.4938,12.003
480.47,5.5141,15.202
492.19,6.3721,15.27
503.91,6.4344,13.804
515.63,6.3736,15.148
527.34,6.3778,15.408
539.06,3.783,16.265
550.78,0.049342,14.537
562.5,3.7632,12.442
574.22,5.0811,15.929
585.94,5.8392,16.193
597.66,2.3648,14.746
609.38,3.3508,12.826
621.09,5.8305,16.9
632.81,7.7188,14.957
644.53,6.5955,11.831
656.25,4.6448,10.787
667.97,4.5976,11.33
679.69,6.2042,14.743
691.41,4.6918,15.067
703.13,4.6532,11.345
714.84,3.2538,12.136
726.56,4.5902,11.782
738.28,1.4501,12.429
750,6.1578,15.496
761.72,5.6438,12.001
773.44,6.1035,12.08
785.16,4.0043,15.031
796.88,4.5529,16.451
808.59,6.3746,15.797
820.31,6.5206,16.923
832.03,4.1786,14.139
843.75,2.8611,14.694
855.47,3.1804,13.912
867.19,3.538,16.897
878.91,3.8672,18.046
890.63,5.4183,15.147
902.34,4.5621,11.762
914.06,5.8159,14.813
925.78,4.8923,12.842
937.5,3.3542,12.288
949.22,6.1752,14.432
960.94,6.086,15.385
972.66,4.9045,13.893
984.38,4.1641,15.139
996.09,3.2684,16.506
1007.8,2.6405,16.887
1019.5,4.7125,16.088
1031.3,5.9004,14.377
1043,5.6341,11.933
1054.7,6.129,15.755
1066.4,7.6465,17.388
1078.1,6.0934,14.697
1089.8,3.7432,16.061
1101.6,4.4443,14.458
1113.3,4.1197,13.194
1125,4.8238,12.835
1136.7,5.2965,12.509
1148.4,4.856,12.442
1160.2,2.1995,13.513
1171.9,3.6964,15.044
1183.6,5.8909,17.073
1195.3,6.6761,17.643
1207,7.251,16.116
1218.8,5.591,14.77
1230.5,2.7859,15.133
1242.2,3.307,15.543
1253.9,6.6786,12.501
1265.6,5.3356,13.339
1277.3,4.3084,13.48
1289.1,7.151,12.023
1300.8,5.1294,12.337
1312.5,4.8718,14.684
1324.2,2.9612,14.19
1335.9,1.6592,8.3701
1347.7,3.323,14.411
1359.4,6.0977,16.315
1371.1,5.2864,14.958
1382.8,0.34527,14.215
1394.5,1.9289,14.666
1406.3,3.6331,11.956
1418,6.6551,12.09
1429.7,7.1948,13.36
1441.4,6.2393,12.982
1453.1,6.0952,13.384
1464.8,4.2453,13.516
1476.6,6.082,11.609
1488.3,3.3988,13.35
1500,3.7097,15.253
1511.7,6.9624,15.547
1523.4,8.1284,13.726
1535.2,2.0725,12.684
1546.9,3.6356,13.8
1558.6,1.3529,14.403
1570.3,2.6571,14.017
1582,5.935,14.466
1593.8,4.059,11.7
1605.5,-0.070461,9.6983
1617.2,-0.88134,11.458
1628.9,2.9666,14.228
1640.6,6.0059,17.069
1652.3,5.6823,16.414
1664.1,4.1316,13.85
1675.8,4.5349,12.989
1687.5,4.5889,14.407
1699.2,1.4614,12.126
1710.9,2.6072,10.682
1722.7,-0.83816,11.169
1734.4,1.4571,14.21
1746.1,2.8616,13.373
1757.8,3.0322,15.304
1769.5,3.7401,15.055
1781.3,4.492,12.825
1793,5.4249,12.823
1804.7,5.2146,14.118
1816.4,5.4126,12.18
1828.1,6.2236,13.023
1839.8,4.8783,13.541
1851.6,2.7398,11.824
1863.3,1.582,12.822
1875,1.7942,11.37
1886.7,2.1759,10.864
1898.4,1.7814,10.41
1910.2,2.6087,11.474
1921.9,2.6106,14.441
1933.6,1.586,16.71
1945.3,3.7692,14.202
1957,4.4195,14.144
1968.8,0.48527,12.225
1980.5,1.5972,9.2655
1992.2,3.0796,9.9991
2003.9,2.9501,9.6259
2015.6,0.68806,8.7067
2027.3,3.0815,12.45
2039.1,2.4145,13.812
2050.8,4.6372,12.895
2062.5,2.519,8.8949
2074.2,4.0216,13.013
2085.9,2.9872,11.438
2097.7,0.70049,12.502
2109.4,-0.35984,13.189
2121.1,3.351,14.907
2132.8,6.1597,10.846
2144.5,5.7918,12.214
2156.3,3.3495,12.396
2168,1.5439,15.955
2179.7,3.6631,14.904
2191.4,2.4786,11.611
2203.1,2.3412,7.5298
2214.8,0.82399,12.156
2226.6,-0.10081,11.808
2238.3,0.65746,10.043
2250,-1.0126,11.258
2261.7,-1.975,10.529
2273.4,0.42757,10.742
2285.2,1.7068,12.29
2296.9,1.4685,9.1054
2308.6,-0.43369,12.013
2320.3,-0.69454,14.546
2332,0.13308,11.902
2343.8,1.3996,15.21
2355.5,0.57316,12.608
2367.2,-1.501,11.361
2378.9,-0.38696,12.79
2390.6,0.39855,14.749
2402.3,-0.14631,12.787
2414.1,0.50695,11.384
2425.8,-0.24335,12.058
2437.5,-0.40418,11.698
2449.2,0.65504,11.215
2460.9,0.70142,10.559
2472.7,0.49929,11.28
2484.4,1.3053,11.268
2496.1,1.9429,7.6918
2507.8,2.3363,13.706
2519.5,5.5687,12.632
2531.3,1.1989,10.492
2543,1.8202,9.9025
2554.7,2.7918,9.522
2566.4,0.51247,10.386
2578.1,2.2293,9.7832
2589.8,3.033,12.792
2601.6,1.6404,13.752
2613.3,0.29836,13.809
2625,-0.7118,11.17
2636.7,-0.46109,11.71
2648.4,0.77328,11.015
2660.2,-1.2574,10.523
2671.9,-1.25,11.64
2683.6,1.5434,10.48
2695.3,0.69454,12.859
2707,-0.4242,14.092
2718.8,0.82703,12.681
2730.5,0.35864,8.5587
2742.2,1.7273,9.8096
2753.9,3.3751,10.409
2765.6,2.2104,10.415
2777.3,0.64173,7.9545
2789.1,1.2491,9.7311
2800.8,-0.11617,10.97
2812.5,2.5229,10.153
2824.2,1.5027,11.028
2835.9,0.43585,10.276
2847.7,-1.7719,8.723
2859.4,-0.076269,12.259
2871.1,-0.25434,10.071
2882.8,-2.0693,10.909
2894.5,-2.403,12.359
2906.3,1.0001,12.448
2918,-1.7162,12.206
2929.7,1.0002,9.3336
2941.4,0.2778,8.4693
2953.1,0.87876,12.624
2964.8,-0.33182,11.265
2976.6,0.74685,9.0876
2988.3,5.2606,12.221
3000,4.5171,10.739
3011.7,0.18479,9.7326
3023.4,-2.261,11.271
3035.2,-0.063678,8.3274
3046.9,-2.0332,8.963
3058.6,-3.4527,9.3448
3070.3,1.4508,10.311
3082,0.57862,8.7987
3093.8,-3.7321,10.49
3105.5,-4.7987,9.6633
3117.2,0.58336,6.4815
3128.9,2.3873,8.9795
3140.6,-1.9157,10.5
3152.3,-1.0343,7.3935
3164.1,-3.086,10.839
3175.8,-3.0684,10.668
3187.5,0.32558,7.4553
3199.2,1.3456,11.829
3210.9,1.7498,10.286
3222.7,1.0093,9.6519
3234.4,0.17671,11.864
3246.1,-1.743,7.4448
3257.8,-2.5454,8.4055
3269.5,-4.5453,9.0437
3281.3,-2.2202,7.1671
3293,-3.6616,11.334
3304.7,-1.8101,9.8566
3316.4,-0.40093,8.6152
3328.1,-1.1937,9.0535
3339.8,0.83488,11.08
3351.6,-4.3124,12.261
3363.3,-2.1365,9.439
3375,-2.5171,6.3909
3386.7,-2.8176,7.2991
3398.4,-2.0974,7.7583
3410.2,0.72119,9.1161
3421.9,1.6058,11.198
3433.6,-0.84967,10.951
3445.3,-2.8302,8.7193
3457,-2.9241,8.7285
3468.8,-3.9321,9.3801
3480.5,0.19909,7.3598
3492.2,-2.0233,9.3233
3503.9,-1.6697,9.4998
3515.6,-3.9107,7.4106
3527.3,-2.2722,8.9237
3539.1,-1.3797,7.8618
3550.8,0.01846,7.9919
3562.5,0.38785,11.128
3574.2,-0.032826,7.0513
3585.9,0.78169,8.3563
3597.7,0.97507,5.788
3609.4,-0.88024,9.4284
3621.1,-0.78525,10.616
3632.8,1.3725,10.133
3644.5,0.72554,9.4002
3656.3,4.8582,8.5164
3668,16.589,11.29
3679.7,34.716,28.352
3691.4,36.678,30.132
3703.1,25.962,18.624
3714.8,6.7744,11.535
3726.6,1.3711,11.322
3738.3,-2.842,10.785
3750,-4.7999,11.948
3761.7,-4.7294,11.509
3773.4,-0.50328,9.5084
3785.2,-1.3481,9.3934
3796.9,-1.9401,8.9831
3808.6,1.5972,9.1979
3820.3,0.15822,6.0764
3832,2.9522,6.7452
3843.8,0.36228,7.5295
3855.5,-1.3175,6.4323
3867.2,-1.5668,7.3343
3878.9,-3.1924,5.8375
3890.6,-7.3608,6.4256
3902.3,-2.5106,8.0841
3914.1,-0.54751,4.7509
3925.8,-0.48333,6.534
3937.5,-2.9346,5.8293
3949.2,-3.7278,7.4733
3960.9,-2.0691,7.7832
3972.7,-3.498,7.2606
3984.4,-1.5965,9.5394
3996.1,-0.3209,10.223
4007.8,-4.9419,6.0907
4019.5,-6.5355,7.3305
4031.3,-5.0279,8.3638
4043,-3.2009,8.2292
4054.7,-2.0069,11.324
4066.4,-0.10926,9.9933
4078.1,1.4424,9.3207
4089.8,2.2063,8.0753
4101.6,1.5522,6.1938
4113.3,-2.1112,8.1286
4125,-2.9472,3.8937
4136.7,-2.6279,6.1856
4148.4,-3.3843,6.6509
4160.2,-3.0513,5.6578
4171.9,-1.7566,4.6869
4183.6,-3.2631,8.4507
4195.3,-3.0299,10.142
4207,-1.6223,8.5436
4218.8,-1.9879,6.5821
4230.5,-4.5848,6.2236
4242.2,-5.7879,8.7428
4253.9,-4.9461,11.756
4265.6,-2.5977,9.4333
4277.3,-3.2177,8.3866
4289.1,-4.1533,8.2883
4300.8,-4.2964,9.4494
4312.5,-3.4065,8.4789
4324.2,-1.402,7.4
4335.9,-1.9639,6.9474
4347.7,-3.9257,6.7511
4359.4,-4.5423,6.223
4371.1,-2.2325,6.9268
4382.8,-0.25713,7.9846
4394.5,-3.5436,4.5681
4406.3,-6.0578,7.093
4418,-5.9056,4.9961
4429.7,-2.8873,7.329
4441.4,-2.1736,8.0397
4453.1,-4.0676,3.6313
4464.8,-0.90152,9.0902
4476.6,-2.7399,9.3206
4488.3,-5.4507,8.0748
4500,-6.4435,9.0123
4511.7,-4.5931,5.7564
4523.4,-3.2018,5.5295
4535.2,-3.0321,4.9976
4546.9,-3.7858,6.0141
4558.6,-3.6225,6.9805
4570.3,-1.009,5.6376
4582,-3.8687,6.9087
4593.8,-5.7327,9.0367
4605.5,-6.8146,5.9313
4617.2,-1.7922,10.361
4628.9,-1.9036,6.6196
4640.6,-4.959,5.7579
4652.3,-2.2354,6.9158
4664.1,0.53073,6.9913
4675.8,-0.087861,6.9474
4687.5,-1.7472,7.5444
4699.2,-4.0499,6.2424
4710.9,-5.8942,6.5355
4722.7,-5.4851,6.387
4734.4,-2.8048,9.9512
4746.1,-3.2788,10.319
4757.8,-4.8162,8.982
4769.5,-4.0428,8.7451
4781.3,-4.8686,7.5784
4793,-2.6083,6.1637
4804.7,-2.6528,5.5224
4816.4,-1.8009,5.9087
4828.1,-4.8056,7.5988
4839.8,-6.3952,6.9936
4851.6,-3.276,7.1716
4863.3,-0.81434,7.9886
4875,-1.8918,6.4906
4886.7,-5.6394,7.3678
4898.4,-2.5405,7.9915
4910.2,-3.5055,4.7969
4921.9,-6.4353,4.6533
4933.6,-6.3241,5.9643
4945.3,-7.4512,5.9043
4957,-4.0401,6.6119
4968.8,-2.063,5.8726
4980.5,-2.2516,6.1989
4992.2,-2.5692,6.6298
5003.9,-1.3398,5.4486
5015.6,-5.553,2.9999
5027.3,-5.2274,3.0449
5039.1,-3.084,5.6829
5050.8,-2.3231,5.8285
5062.5,-1.2746,6.2354
5074.2,-1.13,7.3284
5085.9,-3.3536,5.1819
5097.7,-5.0807,6.0766
5109.4,-3.7933,10.082
5121.1,-6.6334,8.1609
5132.8,-7.5705,6.5375
5144.5,-8.0299,5.9027
5156.3,-5.2765,4.2502
5168,-2.095,5.1927
5179.7,-1.6468,5.1408
5191.4,-3.7735,6.9843
5203.1,-5.5476,6.1114
5214.8,-4.7206,6.2578
5226.6,-3.8362,4.3291
5238.3,-4.1557,3.573
5250,-3.623,5.0249
5261.7,-3.1737,8.0236
5273.4,-3.2038,9.05
5285.2,-4.4557,3.2952
5296.9,-4.0943,4.9609
5308.6,-1.972,8.7875
5320.3,-4.6532,7.5841
5332,-3.7913,7.6716
5343.8,-3.0596,4.4148
5355.5,-0.6954,2.2671
5367.2,-1.9599,8.3252
5378.9,-4.084,10.168
5390.6,-3.3341,7.603
5402.3,-4.2505,9.7024
5414.1,-5.5387,7.3016
5425.8,-3.2627,5.91
5437.5,-2.0551,6.1961
5449.2,-6.8788,5.5242
5460.9,-3.1218,5.1548
5472.7,-4.3372,4.2401
5484.4,-5.1125,5.8225
5496.1,-0.71594,3.532
5507.8,-0.8312,3.5126
5519.5,-6.7818,5.2381
5531.3,-4.6467,7.7608
5543,-3.8627,4.1371
5554.7,-5.7315,4.0864
5566.4,-6.4415,4.7907
5578.1,-7.6069,4.8854
5589.8,-6.1133,4.7308
5601.6,-5.5729,4.8536
5613.3,-6.7019,5.7905
5625,-3.3433,10.06
5636.7,-2.4549,8.8668
5648.4,-3.324,-1.999
5660.2,-6.1902,3.2636
5671.9,-5.192,0.16468
5683.6,-3.8128,3.8321
5695.3,-2.6133,7.3878
5707,-3.9229,6.8447
5718.8,-0.9215,7.779
5730.5,-2.082,4.0983
5742.2,-2.5359,4.2167
5753.9,-2.3643,6.2759
5765.6,-3.7291,3.5945
5777.3,-5.3367,3.4713
5789.1,-5.6445,3.58
5800.8,-8.9873,5.9021
5812.5,-8.4313,0.52491
5824.2,-6.1643,6.6646
5835.9,-6.4196,6.8128
5847.7,-6.0048,4.822
5859.4,-4.7169,3.4736
5871.1,-3.2179,3.883
5882.8,-2.9204,7.6743
5894.5,-1.2499,4.4013
5906.3,-0.98877,6.056
5918,-3.178,7.4988
5929.7,-5.5018,2.8742
5941.4,-5.9774,7.8426
5953.1,-5.7199,6.8735
5964.8,-3.9008,5.0517
5976.6,-4.4081,7.4828
5988.3,-6.8176,8.5557
6000,-6.7013,3.6359
6011.7,-4.0053,6.79
6023.4,-5.7238,6.4791
6035.2,-2.3314,5.2316
6046.9,-1.3726,6.6276
6058.6,-4.1903,6.1367
6070.3,-4.8124,1.1842
6082,-7.4261,1.2058
6093.8,-5.4981,3.9641
6105.5,-3.909,3.8228
6117.2,-2.2318,5.5235
6128.9,-6.1002,7.2132
6140.6,-8.0059,4.5644
6152.3,-5.2419,3.3936
6164.1,-4.2752,3.6682
6175.8,-6.5378,2.8907
6187.5,-7.0423,1.8307
6199.2,-5.8426,3.4755
6210.9,-6.7124,3.3847
6222.7,-8.3471,2.6405
6234.4,-3.0895,4.7674
6246.1,-3.1442,6.6133
6257.8,-5.1304,6.6995
6269.5,-3.9771,4.0328
6281.3,-7.8006,-1.4121
6293,-6.4464,-0.20233
6304.7,-4.47,4.0836
6316.4,-5.4588,5.4101
6328.1,-5.0116,2.777
6339.8,-6.0085,2.154
6351.6,-6.7843,3.8166
6363.3,-7.0517,3.8957
6375,-6.7617,5.2181
6386.7,-5.6288,9.2733
6398.4,-6.6554,9.4539
6410.2,-6.5072,4.5375
6421.9,-4.3322,5.0721
6433.6,-5.6453,4.7818
6445.3,-8.1107,7.2247
6457,-7.5315,4.2917
6468.8,-7.0819,5.2633
6480.5,-8.1205,7.9395
6492.2,-7.9533,7.4084
6503.9,-6.415,4.2755
6515.6,-5.3433,4.9829
6527.3,-9.0921,5.3888
6539.1,-8.5683,3.7727
6550.8,-4.3185,0.79586
6562.5,-3.2425,1.3234
6574.2,-4.5677,3.2472
6585.9,-6.88,4.5956
6597.7,-8.3046,5.7157
6609.4,-8.3085,4.717
6621.1,-8.2108,3.9018
6632.8,-8.1902,4.5655
6644.5,-6.8987,3.6166
6656.3,-4.0831,2.7881
6668,-2.1085,5.488
6679.7,-5.0603,6.2344
6691.4,-4.0696,3.3415
6703.1,-5.0092,4.7905
6714.8,-3.3568,5.5021
6726.6,-0.44305,3.1106
6738.3,-1.1323,2.3667
6750,-6.5413,6.0284
6761.7,-8.7148,7.0454
6773.4,-7.4392,5.1743
6785.2,-7.2316,2.8729
6796.9,-6.3349,1.0717
6808.6,-6.2085,2.6714
6820.3,-7.2525,3.4968
6832,-6.0532,3.3625
6843.8,-5.3306,3.3025
6855.5,-7.8065,2.843
6867.2,-8.2698,4.9675
6878.9,-8.6349,7.0933
6890.6,-8.3043,5.3696
6902.3,-6.7399,2.9795
6914.1,-6.3415,3.57
6925.8,-6.2939,3.5417
6937.5,-6.6249,2.0818
6949.2,-7.0263,4.5853
6960.9,-5.7248,4.731
6972.7,-8.1324,4.2028
6984.4,-6.8259,2.1955
6996.1,-7.9348,1.9306
7007.8,-7.6968,2.3618
7019.5,-5.9553,5.2978
7031.3,-6.143,5.0207
7043,-7.2628,4.8951
7054.7,-5.3955,2.3344
7066.4,-6.7864,2.9691
7078.1,-8.2078,3.5339
7089.8,-10.272,0.82045
7101.6,-9.3377,2.0333
7113.3,-5.2836,-0.82904
7125,-3.67,3.6142
7136.7,-7.5998,7.2406
7148.4,-10.079,5.4234
7160.2,-8.3761,1.1243
7171.9,-5.7792,3.3131
7183.6,-5.0673,5.1947
7195.3,-8.3098,-0.14817
7207,-7.6985,2.315
7218.8,-7.1043,4.1701
7230.5,-6.6833,1.1649
7242.2,-7.1682,0.12076
7253.9,-7.8431,-0.91096
7265.6,-6.751,-0.92233
7277.3,-7.436,-1.7164
7289.1,-8.2323,0.69959
7300.8,-8.3063,4.3696
7312.5,-8.6401,5.2021
7324.2,-8.8526,-0.40499
7335.9,-8.441,4.053
7347.7,-9.1512,0.072207
7359.4,-6.2934,2.1402
7371.1,-7.4845,3.5853
7382.8,-7.246,1.6327
7394.5,-8.2124,0.099679
7406.3,-7.6707,0.078631
7418,-5.2967,4.541
7429.7,-6.9994,4.7562
7441.4,-6.3126,2.8957
7453.1,-7.3471,3.0987
7464.8,-8.6487,6.7655
7476.6,-9.799,1.2475
7488.3,-8.0663,2.5569
7500,-8.381,2.8565
7511.7,-7.1018,0.78452
7523.4,-6.6512,-0.3846
7535.2,-8.9809,2.7545
7546.9,-7.5682,2.1466
7558.6,-6.3938,2.6418
7570.3,-5.6927,3.6078
7582,-8.0361,0.58168
7593.8,-8.7775,1.935
7605.5,-6.9999,4.3221
7617.2,-9.4223,2.2696
7628.9,-11.323,1.4448
7640.6,-11.69,3.4176
7652.3,-8.9992,3.5637
7664.1,-10.072,4.4854
7675.8,-7.5225,5.1384
7687.5,-9.2383,3.7949
7699.2,-7.4435,4.0213
7710.9,-5.1108,1.1101
7722.7,-7.1342,-0.55197
7734.4,-8.0069,1.6751
7746.1,-6.2388,3.2614
7757.8,-8.2588,2.5231
7769.5,-10.603,0.10125
7781.3,-10.854,1.7547
7793,-9.3593,3.6002
7804.7,-7.817,2.4431
7816.4,-6.0984,0.030912
7828.1,-9.5958,-0.94711
7839.8,-6.9787,4.6373
7851.6,-5.0332,5.8072
7863.3,-7.1205,4.6171
7875,-8.3419,3.6781
7886.7,-8.5376,4.28
7898.4,-7.8159,1.9179
7910.2,-8.9044,4.1975
7921.9,-8.0508,2.3768
7933.6,-7.6382,2.9122
7945.3,-5.6611,4.9479
7957,-7.8979,2.5947
7968.8,-8.2852,1.1163
7980.5,-10.246,5.3678
7992.2,-10.399,5.2727
8003.9,-11.908,2.4958
8015.6,-10.058,4.4293
8027.3,-7.114,5.7785
8039.1,-8.2883,5.205
8050.8,-8.0468,1.7216
8062.5,-6.0373,2.5886
8074.2,-5.5912,3.6799
8085.9,-8.5456,-2.4427
8097.7,-11.676,2.3926
8109.4,-9.1008,1.179
8121.1,-10.343,-0.12537
8132.8,-11.215,3.3582
8144.5,-10.96,3.7529
8156.3,-10.638,-0.044229
8168,-9.2819,1.1692
8179.7,-7.1851,1.5398
8191.4,-9.6656,2.4736
8203.1,-10.675,-0.85914
8214.8,-9.3217,-1.9523
8226.6,-10.559,-0.56582
8238.3,-9.8119,1.1412
8250,-11.08,2.0469
8261.7,-11.197,1.1929
8273.4,-10.523,0.25053
8285.2,-7.9439,-0.33642
8296.9,-9.946,0.16573
8308.6,-9.1517,0.38474
8320.3,-7.4291,1.7182
8332,-7.8349,1.5192
8343.8,-6.9894,0.39073
8355.5,-7.3208,-0.41084
8367.2,-8.4241,-0.90684
8378.9,-10.877,-0.73027
8390.6,-13.26,3.0572
8402.3,-10.563,2.1036
8414.1,-8.8303,-2.7141
8425.8,-9.0568,2.5465
8437.5,-8.7106,2.5692
8449.2,-9.3852,-0.58469
8460.9,-11.972,1.0235
8472.7,-12.376,1.9388
8484.4,-9.3808,4.8615
8496.1,-9.7553,4.7094
8507.8,-11.063,5.3593
8519.5,-11.689,5.311
8531.3,-11.515,5.7537
8543,-10.227,4.8769
8554.7,-6.8371,3.812
8566.4,-5.7313,3.0658
8578.1,-10.094,-1.0125
8589.8,-13.17,1.0673
8601.6,-11.926,-0.8969
8613.3,-11.35,1.5323
8625,-10.031,2.8173
8636.7,-10.378,2.8025
8648.4,-8.1301,1.5151
8660.2,-7.5037,3.0191
8671.9,-10.386,2.7882
8683.6,-12.273,1.3433
8695.3,-7.6396,1.5912
8707,-7.6774,1.1665
8718.8,-8.2542,0.94924
8730.5,-11.126,0.17042
8742.2,-9.9414,0.17682
8753.9,-12.998,1.026
8765.6,-11.534,-0.98988
8777.3,-10.12,-1.3113
8789.1,-8.3844,2.5727
8800.8,-8.2688,3.2383
8812.5,-8.8842,-1.4358
8824.2,-9.017,-0.69005
8835.9,-9.782,-3.0731
8847.7,-8.4309,-1.5685
8859.4,-8.6204,3.2446
8871.1,-11.104,4.2128
8882.8,-15.42,1.6209
8894.5,-13.673,-1.0609
8906.3,-11.487,1.348
8918,-9.4188,2.4862
8929.7,-11.451,0.90033
8941.4,-11.224,-2.3133
8953.1,-10.319,-1.9707
8964.8,-11.399,-0.19935
8976.6,-10.142,2.5817
8988.3,-10.338,4.2977
9000,-9.4323,2.4796
9011.7,-9.7463,2.6902
9023.4,-8.0464,0.84565
9035.2,-7.4589,0.42302
9046.9,-8.4111,1.5293
9058.6,-11.219,1.0862
9070.3,-10.598,1.5054
9082,-10.604,3.8243
9093.8,-13.739,2.1508
9105.5,-9.7825,1.5711
9117.2,-7.4321,1.9854
9128.9,-9.1476,1.2835
9140.6,-11.835,-0.48422
9152.3,-11.685,0.52752
9164.1,-9.1637,-4.0245
9175.8,-9.3891,-0.8088
9187.5,-11.701,2.2545
9199.2,-12.986,1.3039
9210.9,-11.882,0.5987
9222.7,-12.525,-0.58526
9234.4,-12.796,-0.042466
9246.1,-13.033,-2.1951
9257.8,-11.425,-2.6979
9269.5,-8.7401,0.40985
9281.3,-7.2079,1.6428
9293,-8.5814,2.7582
9304.7,-7.4933,2.733
9316.4,-7.2301,1.5229
9328.1,-9.8229,1.0095
9339.8,-12.449,2.3503
9351.6,-9.7123,2.2969
9363.3,-8.8471,2.9735
9375,-8.5693,2.9886
9386.7,-10.43,1.5125
9398.4,-11.963,1.0324
9410.2,-11.244,-1.2298
9421.9,-10.751,-1.2005
9433.6,-10.168,-2.2884
9445.3,-9.6736,1.9012
9457,-12.309,1.8996
9468.8,-13.532,-2.9993
9480.5,-9.8738,-2.5473
9492.2,-10.537,-1.767
9503.9,-11.004,-0.68968
9515.6,-11.066,0.0049087
9527.3,-9.1964,-1.4677
9539.1,-9.984,-1.8915
9550.8,-10.151,0.20627
9562.5,-11.005,2.1828
9574.2,-12.309,1.5289
9585.9,-11.345,-1.8286
9597.7,-11.065,-2.9382
9609.4,-10.543,-0.81437
9621.1,-8.8651,-0.9999
9632.8,-10.461,-0.48022
9644.5,-9.1034,-1.5852
9656.3,-10.842,-2.655
9668,-15.088,-0.73328
9679.7,-13.906,0.82208
9691.4,-15.285,0.729
9703.1,-11.338,2.3529
9714.8,-13.152,-1.3419
9726.6,-10.803,-1.7591
9738.3,-11.165,-2.8679
9750,-9.7757,-3.1104
9761.7,-10.175,-3.2043
9773.4,-12.857,0.24171
9785.2,-12.858,3.0138
9796.9,-11.162,1.2719
9808.6,-9.429,-0.054324
9820.3,-9.8027,-1.7419
9832,-9.3916,-2.5495
9843.8,-9.7189,-3.8629
9855.5,-10.574,-0.45744
9867.2,-10.037,1.6768
9878.9,-10.436,0.82987
9890.6,-12.95,2.3178
9902.3,-13.776,0.11401
9914.1,-9.3906,1.0323
9925.8,-11.336,1.174
9937.5,-12.659,-2.395
9949.2,-14.159,-3.4404
9960.9,-16.073,-2.7734
9972.7,-12.333,-2.9372
9984.4,-12.648,-2.7248
9996.1,-10.934,-0.24235
10008,-11.755,-0.25529
10020,-11.935,0.20808
10031,-14.331,-0.64184
10043,-14.694,-0.062493
10055,-12.529,1.5884
10066,-9.4935,-0.16953
10078,-9.1912,-0.69634
10090,-12.448,0.73152
10102,-12.324,-0.47803
10113,-8.5768,-0.056416
10125,-10.753,-1.4843
10137,-13.471,-0.93086
10148,-10.897,-0.71578
10160,-9.7221,1.1664
10172,-9.9192,0.8534
10184,-9.6922,1.2409
10195,-9.4931,0.96435
10207,-12.355,3.5922
10219,-14.034,0.818
10230,-13.903,0.074861
10242,-12.836,0.83822
10254,-11.923,-1.4173
10266,-10.637,-1.5807
10277,-11.927,-2.1211
10289,-14.555,-3.5048
10301,-12.171,-3.2097
10313,-10.348,-1.1167
10324,-10.792,-3.898
10336,-11.421,-3.4457
10348,-13.774,-1.1946
10359,-13.087,-2.9768
10371,-13.747,-2.034
10383,-11.69,-1.2222
10395,-12.184,-4.3053
10406,-14.277,-3.4083
10418,-9.4449,-1.5888
10430,-10.361,-0.08806
10441,-9.7782,-2.4887
10453,-10.806,-3.7752
10465,-10.573,-2.6679
10477,-13.084,-3.5737
10488,-11.897,-2.7834
10500,-13.465,-4.0842
10512,-14.77,-2.3812
10523,-14.259,-2.3913
10535,-13.663,-0.99219
10547,-12.46,-1.5751
10559,-12.773,-1.2633
10570,-12.876,-1.2811
10582,-13.334,-3.2161
10594,-10.687,-0.37863
10605,-11.155,-1.0682
10617,-12.787,-4.4341
10629,-12.496,-2.3501
10641,-10.51,0.26706
10652,-9.7606,-0.11452
10664,-10.56,-0.17752
10676,-10.987,-1.6309
10688,-9.3908,0.45147
10699,-11.425,-0.17077
10711,-12.981,2.0457
10723,-10.762,-1.0961
10734,-12.116,-3.5604
10746,-10.061,-2.8841
10758,-9.3495,-3.7457
10770,-13.552,-4.0784
10781,-11.717,-5.3496
10793,-12.017,-2.9844
10805,-11.574,-2.371
10816,-12.231,-4.1885
10828,-13.91,-6.2647
10840,-12.065,-3.3404
10852,-12.602,-3.3642
10863,-14.18,-1.7185
10875,-11.263,-2.7638
10887,-13.595,-3.4593
10898,-15.519,-1.1834
10910,-12.213,-1.966
10922,-10.606,-2.7629
10934,-15.128,-0.49847
10945,-12.813,-2.2803
10957,-12.843,-1.8629
10969,-12.141,-0.96082
10980,-12.036,-1.1829
10992,-13.013,-0.067237
11004,-14.594,-0.63157
11016,-17.285,-3.8522
11027,-15.46,-3.4065
11039,-15.099,-3.3004
11051,-7.8585,-3.6442
11063,-2.5934,-5.0457
11074,-5.8376,-3.3342
11086,-10.158,-3.3234
11098,-10.084,-2.9132
11109,-14.91,-2.8803
11121,-13.815,-2.6951
11133,-10.978,-2.3461
11145,-8.1663,-2.8608
11156,-7.3694,-2.5827
11168,-8.0054,-1.4332
11180,-11.301,-1.1337
11191,-12.551,-0.35768
11203,-11.795,-1.5008
11215,-13.093,-3.1808
11227,-14.05,-3.7591
11238,-13.072,-3.6438
11250,-10.954,-1.8155
11262,-11.953,-2.5068
11273,-15.066,-1.7564
11285,-15.142,-2.9115
11297,-13.263,-3.2394
11309,-12.544,-2.8161
11320,-12.58,-1.6582
11332,-10.581,0.084566
11344,-13.697,-3.2898
11355,-15.359,-2.4401
11367,-15.066,-1.7806
11379,-16.538,-2.7256
11391,-18.02,-5.7213
11402,-15.103,-5.4076
11414,-14.191,-4.8619
11426,-11.709,-5.0546
11438,-12.659,-0.1251
11449,-12.01,0.99374
11461,-11.252,-3.4117
11473,-11.314,-1.8763
11484,-13.102,-2.3167
11496,-14.487,-3.9527
11508,-13.033,-4.4913
11520,-11.212,-3.5035
11531,-9.4071,-2.9776
11543,-10.578,-0.71567
11555,-16.049,-1.6951
11566,-15.726,-2.6341
11578,-15.126,-2.446
11590,-14.137,-2.996
11602,-15.113,-4.299
11613,-12.496,-4.9178
11625,-13.501,-1.8127
11637,-13,-1.7693
11648,-11.552,-3.9783
11660,-11.121,-6.3265
11672,-13.347,0.40501
11684,-13.432,-0.7441
11695,-13.622,-4.046
11707,-13.015,-3.3706
11719,-12.664,-2.1622
11730,-13.483,-2.055
11742,-13.578,-3.1536
11754,-11.658,-2.2429
11766,-12.892,-2.2055
11777,-11.828,-0.27189
11789,-12.741,-1.9672
11801,-13.09,-4.3805
11813,-10.984,-3.6956
11824,-9.9824,-1.8937
11836,-8.6444,-1.6199
11848,-12.06,-4.8313
11859,-12.949,-3.185
11871,-14.111,-5.6301
11883,-13.85,-4.3373
11895,-11.911,-3.1527
11906,-10.324,-2.2262
11918,-10.304,-4.5379
11930,-14.764,-5.2955
11941,-12.279,-6.3312
11953,-15.316,-5.3118
11965,-16.562,-4.2339
11977,-13.808,-4.7369
11988,-12.968,-4.7074
12000,-13.179,-2.7197
12012,-16.611,-2.312
12023,-14.829,-4.9525
12035,-14.71,-4.1654
12047,-10.731,-9.9939
12059,-10.578,-3.0748
12070,-15.088,-3.8676
12082,-15.403,-4.7218
12094,-15.726,-5.8662
12105,-13.013,-4.0284
12117,-15.025,-3.1576
12129,-12.937,-4.4438
12141,-12.092,-6.4585
12152,-13.733,-5.0762
12164,-15.426,-4.0348
12176,-14.277,-3.3544
12188,-13.722,-4.5869
12199,-11.809,-4.7184
12211,-11.494,-2.1041
12223,-13.742,-4.3129
12234,-12.406,-2.8578
12246,-14.05,-2.9052
12258,-16.319,-5.9296
12270,-13.522,-5.3863
12281,-10.666,-3.2935
12293,-14.362,-5.4085
12305,-13.779,-5.013
12316,-12.431,-2.4092
12328,-12.848,-4.3987
12340,-12.173,-6.2388
12352,-13.114,-6.5364
12363,-13.527,-5.8035
12375,-13.409,-5.5885
12387,-12.687,-7.5756
12398,-13.18,-5.5244
12410,-15.584,-2.3509
12422,-14.023,-1.9718
12434,-14.389,-5.1238
12445,-15.539,-4.5159
12457,-13.106,-3.5667
12469,-13.495,-1.4397
12480,-12.735,-4.4423
12492,-13.942,-5.5086
12504,-14.638,-5.0052
12516,-15.534,-5.712
12527,-13.112,-3.4872
12539,-10.603,-2.559
12551,-11.458,-2.7412
12563,-12.094,-1.0419
12574,-11.104,-4.4907
12586,-14.394,-6.2573
12598,-11.788,-5.2284
12609,-12.116,-5.8583
12621,-11.682,-7.1053
12633,-13.695,-7.7148
12645,-15.766,-4.2853
12656,-13.588,-5.2627
12668,-10.384,-6.6843
12680,-10.291,-5.3322
12691,-12.764,-4.0399
12703,-11.76,-3.6948
12715,-11.782,-3.1797
12727,-15.059,-5.7189
12738,-13.08,-3.4599
12750,-12.1,-1.7316
12762,-11.77,-3.2387
12773,-13.843,-3.6865
12785,-11.784,-2.5476
12797,-12.7,-5.59
12809,-11.385,-2.4632
12820,-9.9311,-0.43067
12832,-15.634,-4.8062
12844,-15.026,-6.251
12855,-13.537,-8.4483
12867,-13.343,-6.6038
12879,-14.256,-5.9722
12891,-14.474,-4.0955
12902,-14.24,-6.8892
12914,-12.037,-3.237
12926,-12.431,-4.867
12938,-13.49,-3.6944
12949,-12.597,-4.8725
12961,-15.879,-4.6089
12973,-13.854,-5.6502
12984,-11.246,-7.4614
12996,-12.461,-5.2173
13008,-13.891,-5.6675
13020,-11.144,-7.1324
13031,-11.353,-6.5177
13043,-11.558,-3.8161
13055,-12.577,-4.4232
13066,-12.732,-6.5486
13078,-12.464,-5.1223
13090,-11.579,-3.4292
13102,-13.262,-6.0504
13113,-13.158,-6.9575
13125,-13.837,-7.5654
13137,-14.068,-8.7409
13148,-14.55,-6.3083
13160,-16.311,-5.5187
13172,-14.946,-4.477
13184,-13.777,-3.9929
13195,-16.115,-3.995
13207,-11.926,-3.9304
13219,-13.697,-6.0505
13230,-17.337,-6.5245
13242,-15.612,-4.1028
13254,-13.875,-3.0029
13266,-11.922,-4.9366
13277,-12.732,-6.4336
13289,-14.494,-6.6381
13301,-14.641,-4.8351
13313,-16.707,-5.2717
13324,-16.771,-5.5734
13336,-14.234,-6.2062
13348,-12.805,-6.1086
13359,-11.711,-4.4513
13371,-12.234,-3.3479
13383,-15.045,-3.9992
13395,-15.354,-6.6267
13406,-14.466,-4.6732
13418,-14.914,-6.6212
13430,-12.108,-5.5966
13441,-11.614,-4.5839
13453,-14.124,-6.3676
13465,-14.488,-5.8075
13477,-14.54,-5.8519
13488,-13.205,-4.7751
13500,-12.374,-6.7325
13512,-15.486,-4.5025
13523,-14.579,-5.8833
13535,-14.05,-6.0786
13547,-13.731,-7.6726
13559,-16.178,-2.6114
13570,-18.946,-1.4285
13582,-19.968,-5.032
13594,-17.659,-4.2653
13605,-15.796,-2.5021
13617,-14.26,-4.5188
13629,-14.147,-5.5593
13641,-14.47,-7.8216
13652,-14.676,-6.0477
13664,-15.177,-6.3169
13676,-14.06,-6.5861
13688,-12.958,-4.2232
13699,-16.063,-3.6835
13711,-14.275,-5.5317
13723,-12.09,-3.3665
13734,-11.881,-5.0119
13746,-11.717,-6.0651
13758,-15.461,-5.7865
13770,-15.453,-8.7038
13781,-14.123,-5.2424
13793,-15.922,-3.0853
13805,-13.665,-5.5287
13816,-13.699,-8.4542
13828,-15.426,-7.4133
13840,-14.494,-7.4003
13852,-13.7,-7.6293
13863,-16.459,-6.4027
13875,-18.299,-6.9568
13887,-15.052,-4.0682
13898,-14.216,-6.0689
13910,-14.548,-6.2134
13922,-14.975,-4.4901
13934,-16.524,-4.7277
13945,-15.215,-6.0032
13957,-14.179,-5.4826
13969,-13.863,-5.3758
13980,-13.331,-3.9015
13992,-15.385,-4.4795
14004,-17.742,-6.6258
14016,-14.259,-7.4734
14027,-12.881,-7.0602
14039,-16.049,-6.849
14051,-15.171,-6.2519
14063,-16.744,-3.6336
14074,-17.143,-4.3017
14086,-15.702,-5.5304
14098,-13.773,-6.1761
14109,-14.476,-8.0643
14121,-14.905,-6.8438
14133,-16.615,-6.8524
14145,-16.624,-6.6784
14156,-19.108,-5.2149
14168,-17.436,-5.3825
14180,-15.648,-6.5253
14191,-15.803,-8.2187
14203,-14.656,-7.3379
14215,-12.445,-10.541
14227,-15.054,-6.4301
14238,-14.043,-6.7917
14250,-13.942,-7.6728
14262,-14.245,-7.951
14273,-15.474,-12.202
14285,-17.995,-8.6863
14297,-16.044,-7.475
14309,-19.601,-5.6413
14320,-17.227,-5.2867
14332,-19.108,-5.7461
14344,-16.564,-4.9388
14355,-13.844,-6.0307
14367,-16.812,-4.2666
14379,-15.291,-2.7027
14391,-16.726,-3.6257
14402,-15.284,-4.7597
14414,-17.292,-8.3749
14426,-18.716,-7.1148
14438,-17.946,-6.5467
14449,-16.873,-4.3853
14461,-18.057,-4.7572
14473,-19.295,-8.1314
14484,-19.593,-7.0509
14496,-16.292,-8.0661
14508,-17.56,-8.9348
14520,-18.262,-7.1101
14531,-18.548,-6.335
14543,-18.345,-5.6731
14555,-16.563,-3.8013
14566,-14.476,-6.3675
14578,-15.374,-8.4315
14590,-17.502,-9.8583
14602,-14.578,-8.1821
14613,-13.089,-9.2888
14625,-15.137,-8.1953
14637,-18.615,-8.0308
14648,-17.851,-8.3719
14660,-19.79,-7.4547
14672,-17.42,-6.7717
14684,-17.079,-6.4901
14695,-16.825,-6.6412
14707,-16.367,-6.0374
14719,-15.65,-5.7935
14730,-11.994,-4.2361
14742,-13.899,-2.6959
14754,-17.391,-4.0858
14766,-18.37,-5.7503
14777,-19.567,-5.3953
14789,-18.634,-6.3675
14801,-21.185,-4.3326
14813,-17.647,-4.7885
14824,-16.719,-8.6311
14836,-15.904,-4.7548
14848,-14.733,-4.7595
14859,-16.421,-6.8333
14871,-16.184,-4.6941
14883,-16.838,-9.4982
14895,-17.339,-7.8448
14906,-16.643,-7.3512
14918,-18.814,-7.5319
14930,-19.797,-6.1736
14941,-21.278,-5.3998
14953,-15.707,-6.676
14965,-13.911,-6.7544
14977,-18.112,-6.9875
14988,-20.665,-5.6155
15000,-17.842,-4.6474
15012,-18.822,-9.8668
15023,-18.553,-5.9239
15035,-16.243,-5.3332
15047,-15.857,-5.6339
15059,-17.001,-8.4443
15070,-16.448,-10.75
15082,-17.506,-7.5627
15094,-16.303,-5.1526
15105,-15.083,-4.2469
15117,-14.703,-5.378
15129,-16.867,-5.5388
15141,-17.131,-4.8014
15152,-13.2,-6.1821
15164,-16.822,-7.9726
15176,-18.401,-6.4336
15188,-18.881,-6.8161
15199,-19.268,-3.8071
15211,-21.125,-2.8847
15223,-18.122,-3.4856
15234,-17.689,-4.715
15246,-18.89,-4.8524
15258,-17.532,-6.3937
15270,-18.247,-7.3199
15281,-16.965,-8.9568
15293,-15.936,-7.7168
15305,-17.571,-6.3693
15316,-17.964,-6.8136
15328,-20.411,-6.2365
15340,-19.462,-6.2333
15352,-17.605,-7.8376
15363,-14.764,-8.829
15375,-17.006,-7.4674
15387,-19.322,-4.9068
15398,-19.726,-5.6574
15410,-16.034,-6.5615
15422,-15.064,-5.5109
15434,-17.574,-6.9403
15445,-21.206,-6.1383
15457,-22.61,-7.6392
15469,-20.742,-9.4757
15480,-19.836,-7.1318
15492,-22.363,-6.4499
15504,-20.833,-6.1087
15516,-16.242,-7.4827
15527,-15.709,-7.7553
15539,-16.46,-9.3695
15551,-16.825,-9.9429
15563,-17.577,-5.4586
15574,-19.015,-6.6803
15586,-18.969,-8.8766
15598,-20.643,-4.7638
15609,-17.967,-5.3151
15621,-15.482,-6.1809
15633,-16.256,-8.538
15645,-18.515,-9.2091
15656,-19.063,-10.924
15668,-18.565,-8.5785
15680,-19.663,-4.7462
15691,-19.448,-5.1662
15703,-18.652,-5.7331
15715,-17.386,-7.7909
15727,-16.051,-7.1388
15738,-17.718,-3.9725
15750,-19.173,-5.185
15762,-16.363,-11.139
15773,-19.23,-5.3547
15785,-20.213,-6.7081
15797,-21.374,-7.1442
15809,-20.624,-5.5592
15820,-20.923,-5.385
15832,-22.492,-5.2032
15844,-20.774,-8.6944
15855,-19.934,-10.368
15867,-18.698,-8.4004
15879,-19.69,-6.8746
15891,-17.765,-7.761
15902,-19.341,-8.0963
15914,-21.612,-6.1044
15926,-19.668,-5.9303
15938,-19.724,-5.3188
15949,-19.725,-7.1882
15961,-20.945,-9.0101
15973,-20.876,-9.9853
15984,-22.192,-6.5289
15996,-22.324,-6.2639
16008,-18.607,-6.3643
16020,-17.391,-6.2307
16031,-17.681,-6.7488
16043,-21.152,-6.6784
16055,-22.866,-7.9678
16066,-20.375,-8.5136
16078,-19.826,-9.2102
16090,-20.908,-9.3156
16102,-22.234,-9.8633
16113,-22.232,-8.1931
16125,-20.535,-6.5016
16137,-18.995,-4.902
16148,-20.652,-6.3836
16160,-19.845,-6.7589
16172,-19.195,-7.4174
16184,-19.512,-8.915
16195,-19.835,-10.972
16207,-21.186,-11.22
16219,-16.712,-8.3149
16230,-17.699,-7.3735
16242,-16.182,-5.8081
16254,-18.17,-5.7265
16266,-17.755,-7.4667
16277,-19.881,-11.826
16289,-19.765,-6.9002
16301,-20.395,-7.3876
16313,-21.033,-9.4959
16324,-19.645,-8.0617
16336,-18.32,-6.2587
16348,-19.602,-9.4494
16359,-19.426,-9.2043
16371,-18.567,-7.6032
16383,-20.076,-7.2259
16395,-23.913,-7.2541
16406,-21.419,-13.769
16418,-22.383,-9.2995
16430,-19.241,-10.871
16441,-19.241,-10.968
16453,-18.898,-9.6289
16465,-19.91,-11.448
16477,-20.661,-12.151
16488,-20.814,-9.1084
16500,-22.358,-7.3398
16512,-24.389,-8.7893
16523,-23.832,-9.4549
16535,-23.241,-11.638
16547,-24.361,-7.6847
16559,-20.638,-8.8998
16570,-18.379,-7.2511
16582,-18.612,-5.7379
16594,-20.649,-7.0012
16605,-18.577,-5.9761
16617,-20.92,-10.375
16629,-24.556,-10.954
16641,-22.501,-9.6615
16652,-19.63,-10.241
16664,-18.766,-9.1929
16676,-21.009,-9.1938
16688,-22.094,-9.6937
16699,-22.428,-8.9763
16711,-24.243,-10.463
16723,-23.349,-8.9714
16734,-23.563,-6.0663
16746,-21.424,-8.5302
16758,-19.071,-11.498
16770,-19.612,-10.441
16781,-20.822,-10.193
16793,-22.721,-7.2822
16805,-20.901,-8.1354
16816,-20.011,-9.2502
16828,-22.033,-5.6734
16840,-21.643,-7.3266
16852,-18.033,-6.746
16863,-17.515,-8.9525
16875,-19.403,-8.3509
16887,-21.579,-7.2497
16898,-19.294,-10.781
16910,-19.666,-9.6403
16922,-18.934,-7.7275
16934,-19.2,-8.4377
16945,-20.349,-8.4451
16957,-22.806,-9.0246
16969,-20.22,-8.9305
16980,-21.12,-9.2039
16992,-22.37,-4.1583
17004,-20.67,-5.4954
17016,-21.251,-7.2166
17027,-24.09,-10.407
17039,-24.364,-11.715
17051,-23.487,-10.53
17063,-20.521,-8.948
17074,-18.959,-8.3236
17086,-21.892,-10.167
17098,-23.554,-9.9968
17109,-22.595,-10.094
17121,-22.48,-8.9428
17133,-23.922,-9.8865
17145,-23.209,-9.7938
17156,-20.828,-9.3993
17168,-21.617,-9.3365
17180,-22.389,-8.784
17191,-23.262,-11.095
17203,-23.855,-9.0067
17215,-22.997,-7.1725
17227,-21.424,-10.243
17238,-19.611,-7.6602
17250,-18.379,-6.7581
17262,-19.339,-7.3885
17273,-20.339,-9.9719
17285,-19.826,-9.6611
17297,-21.956,-10.119
17309,-23.627,-11.343
17320,-20.679,-8.6561
17332,-22.218,-7.8447
17344,-24.97,-8.8308
17355,-20.476,-6.5753
17367,-16.592,-7.0427
17379,-18.246,-8.3725
17391,-21.716,-9.9327
17402,-21.022,-11.691
17414,-21.01,-10.575
17426,-19.915,-7.2699
17438,-20.194,-9.0051
17449,-21.695,-11.025
17461,-20.239,-13.062
17473,-24.145,-10.171
17484,-22.298,-7.4118
17496,-20.93,-8.006
17508,-19.342,-10.991
17520,-21.527,-10.323
17531,-22.435,-9.3455
17543,-17.311,-7.7918
17555,-19.048,-8.4945
17566,-20.586,-9.2402
17578,-21.975,-12.824
17590,-23.379,-11.508
17602,-22.625,-9.7098
17613,-21.009,-9.6635
17625,-22.123,-11.116
17637,-24.096,-10.767
17648,-22.339,-6.9881
17660,-21.099,-5.7365
17672,-20.727,-7.1397
17684,-18.893,-11.194
17695,-17.606,-8.448
17707,-19.717,-10.198
17719,-24.429,-10.982
17730,-23.647,-9.9428
17742,-20.674,-10.101
17754,-20.658,-9.7228
17766,-25.678,-7.947
17777,-23.879,-9.442
17789,-21.92,-11.03
17801,-22.013,-14.072
17813,-21.75,-12.813
17824,-21.454,-13.903
17836,-20.359,-12.593
17848,-18.944,-11.381
17859,-20.735,-11.097
17871,-23.173,-11.876
17883,-24.431,-12.633
17895,-22.407,-10.443
17906,-23.229,-9.2574
17918,-24.502,-9.7754
17930,-23.882,-7.8391
17941,-23.076,-9.5285
17953,-22.089,-7.7187
17965,-22.433,-7.7655
17977,-23.571,-10.858
17988,-22.501,-10.806
18000,-22.649,-8.8751
18012,-23.635,-11.935
18023,-23.116,-9.077
18035,-23.543,-12.048
18047,-20.95,-11.348
18059,-19.27,-10.975
18070,-20.412,-8.4574
18082,-25.949,-7.7334
18094,-22.991,-8.459
18105,-21.68,-8.5475
18117,-20.17,-8.6881
18129,-22.141,-5.6604
18141,-23.27,-6.9877
18152,-21.198,-14.337
18164,-24.731,-12.52
18176,-26.318,-8.566
18188,-24.741,-8.9772
18199,-22.839,-9.0279
18211,-22.593,-9.0205
18223,-24.228,-10.586
18234,-24.925,-9.6461
18246,-20.26,-9.1407
18258,-24.045,-10.236
18270,-23.037,-9.0125
18281,-23.251,-11.765
18293,-22.916,-11.122
18305,-23.912,-9.4745
18316,-23.459,-9.0235
18328,-25.419,-9.3941
18340,-22.082,-9.5039
18352,-23.126,-10.478
18363,-23.295,-12.04
18375,-22.098,-11.331
18387,-23.88,-11.403
18398,-25.198,-9.7968
18410,-23.716,-10.255
18422,-21.57,-10.313
18434,-22.426,-9.717
18445,-23.055,-10.768
18457,-22.613,-9.2698
18469,-25.122,-9.8024
18480,-24.639,-12.539
18492,-25.958,-9.5202
18504,-26.763,-8.6981
18516,-24.125,-9.1217
18527,-25.968,-11.91
18539,-26.315,-9.6118
18551,-24.867,-10.857
18563,-23.878,-11.515
18574,-20.334,-11.859
18586,-22.319,-10.591
18598,-24.752,-11.185
18609,-22.133,-15.736
18621,-21.16,-10.471
18633,-23.619,-9.6712
18645,-23.177,-10.757
18656,-24.663,-10.737
18668,-23.973,-10.023
18680,-21.305,-9.835
18691,-19.885,-11.078
18703,-20.932,-11.067
18715,-21.557,-15.033
18727,-22.67,-13.851
18738,-22.207,-11.157
18750,-24.21,-14.395
18762,-25.186,-15.662
18773,-24.804,-12.554
18785,-22.822,-9.7928
18797,-24.681,-8.7136
18809,-25.305,-9.6779
18820,-25.673,-9.3888
18832,-22.361,-9.9566
18844,-23.928,-15.232
18855,-24.548,-11.865
18867,-25.17,-11.561
18879,-25.71,-10.985
18891,-24.187,-10.188
18902,-25.451,-9.5784
18914,-25.253,-10.864
18926,-25.952,-11.661
18938,-23.005,-10.647
18949,-21.95,-10.385
18961,-21.073,-12.904
18973,-23.659,-14.567
18984,-26.576,-13.185
18996,-26.062,-10.31
19008,-25.641,-11.039
19020,-25.867,-13.547
19031,-27.258,-9.683
19043,-25.014,-11.705
19055,-23.599,-10.914
19066,-26.348,-11.82
19078,-24.668,-9.8829
19090,-25.363,-11.264
19102,-24.758,-9.8299
19113,-23.825,-10.451
19125,-25.194,-9.7444
19137,-27.418,-10.502
19148,-23.048,-12.19
19160,-24.968,-12.614
19172,-26.484,-10.507
19184,-24.705,-11.607
19195,-25.191,-13.695
19207,-27.182,-11.436
19219,-25.58,-11.751
19230,-25.205,-10.43
19242,-23.8,-11.285
19254,-22.763,-10.466
19266,-22.219,-9.2196
19277,-24.834,-12.257
19289,-24.54,-13.957
19301,-22.862,-12.272
19313,-23.251,-10.271
19324,-21.342,-11.802
19336,-20.419,-12.391
19348,-21.725,-12.894
19359,-23.377,-9.2265
19371,-24.18,-10.681
19383,-25.566,-13.94
19395,-25.884,-11.849
19406,-25.342,-11.39
19418,-26.443,-12.404
19430,-28.358,-8.3503
19441,-27.398,-8.4564
19453,-27.585,-11.05
19465,-23.14,-10.898
19477,-20.85,-10.793
19488,-22.368,-9.187
19500,-22.443,-10.041
19512,-23.086,-11.252
19523,-21.232,-11.387
19535,-22.018,-13.477
19547,-23.069,-11.26
19559,-22.974,-7.1557
19570,-24.178,-7.7436
19582,-22.903,-8.6826
19594,-23.467,-9.8944
19605,-27.439,-9.1622
19617,-25.46,-8.3317
19629,-26.62,-8.8627
19641,-24.96,-7.8058
19652,-22.688,-10.667
19664,-22.736,-12.192
19676,-23.501,-10.57
19688,-23.759,-8.9729
19699,-22.653,-10.489
19711,-23.71,-10.859
19723,-22.795,-11.35
19734,-23.656,-11.677
19746,-24.599,-12.589
19758,-26.181,-13.324
19770,-25.508,-13.144
19781,-25.164,-12.619
19793,-27.973,-12.486
19805,-25.212,-11.964
19816,-26.117,-10.447
19828,-25.988,-9.3607
19840,-28.463,-10.557
19852,-24.298,-9.1251
19863,-24.239,-7.8019
19875,-24.525,-10.617
19887,-25.016,-13.612
19898,-26.321,-16.832
19910,-27.959,-15.674
19922,-27.215,-16.554
19934,-25.297,-14.074
19945,-23.766,-13.884
19957,-21.831,-15.361
19969,-22.727,-13.01
19980,-25.195,-11.28
19992,-24.333,-10.099
20004,-25.683,-9.4094
20016,-26.636,-13.008
20027,-24.735,-14.326
20039,-23.587,-14.04
20051,-26.204,-10.966
20063,-24.259,-12.554
20074,-23.806,-11.256
20086,-26.919,-9.6559
20098,-27.83,-12.194
20109,-25.717,-12.489
20121,-25.178,-10.903
20133,-24.978,-11.768
20145,-26.457,-11.835
20156,-23.714,-11.606
20168,-27.488,-12.265
20180,-26.982,-13.042
20191,-23.877,-9.5916
20203,-23.302,-9.668
20215,-24.753,-13.811
20227,-26.377,-14.407
20238,-24.797,-13.692
20250,-24.79,-12.942
20262,-25.438,-12.688
20273,-26.823,-12.769
20285,-27.572,-13.007
20297,-26.836,-12.845
20309,-28.198,-11.907
20320,-26.795,-12.661
20332,-23.208,-11.398
20344,-23.208,-11.376
20355,-23.635,-12.868
20367,-26.549,-10.025
20379,-35.536,-10.96
20391,-27.976,-13.169
20402,-22.989,-14.305
20414,-25.618,-13.353
20426,-25.041,-12.574
20438,-22.851,-14.118
20449,-23.491,-14.639
20461,-24.821,-10.83
20473,-26.143,-8.8282
20484,-26.183,-10.077
20496,-26.374,-12.158
20508,-25.066,-11.378
20520,-24.81,-8.8782
20531,-24.244,-11.448
20543,-25.813,-12.93
20555,-25.01,-10.581
20566,-24.382,-11.82
20578,-26.107,-10.142
20590,-27.811,-10.578
20602,-25.765,-12.803
20613,-24.969,-14.104
20625,-26.319,-11.331
20637,-25.168,-16.609
20648,-24.674,-11.57
20660,-26.017,-12.267
20672,-27.438,-13.968
20684,-26.983,-15.446
20695,-24.915,-14.744
20707,-22.201,-12.951
20719,-21.99,-15.09
20730,-28.302,-13.533
20742,-27.659,-12.992
20754,-26.141,-9.1924
20766,-26.415,-10.092
20777,-24.733,-15.232
20789,-23.03,-12.565
20801,-24.702,-11.828
20813,-26.294,-11.247
20824,-26.889,-8.6912
20836,-27.408,-9.3218
20848,-26.289,-10.629
20859,-25.652,-12.916
20871,-25.541,-13.512
20883,-25.6,-12.468
20895,-26.739,-13.418
20906,-27.248,-15.319
20918,-26.481,-14.937
20930,-25.721,-13.971
20941,-25.394,-10.925
20953,-22.976,-12.694
20965,-23.774,-15.839
20977,-24.326,-12.293
20988,-26.781,-11.909
21000,-28.749,-14.083
21012,-26.078,-15.953
21023,-27.26,-18.675
21035,-27.786,-14.077
21047,-26.67,-10.67
21059,-27.812,-12.031
21070,-29.945,-13.638
21082,-31.057,-12.732
21094,-25.299,-12.299
21105,-22.687,-12.673
21117,-24.401,-11.476
21129,-27.667,-10.95
21141,-24.85,-10.381
21152,-23.938,-11.443
21164,-29.17,-13.391
21176,-25.161,-14.112
21188,-23.477,-10.662
21199,-25.595,-10.858
21211,-26.639,-14.446
21223,-23.061,-12.159
21234,-24.54,-10.052
21246,-26.411,-13.349
21258,-28.303,-11.101
21270,-29.04,-11.936
21281,-27.808,-15.536
21293,-25.478,-14.751
21305,-25.052,-14.217
21316,-24.772,-12.473
21328,-24.921,-11.517
21340,-26.653,-12
21352,-26.952,-10.918
21363,-28.943,-10.191
21375,-29.207,-13.75
21387,-26.999,-16.334
21398,-29.678,-11.984
21410,-26.821,-15.595
21422,-28.13,-16.54
21434,-26.706,-12.357
21445,-26.387,-8.3597
21457,-27.284,-11.314
21469,-28.626,-13.742
21480,-27.164,-15.522
21492,-26.648,-16.472
21504,-26.029,-14.078
21516,-27.867,-17.271
21527,-32.28,-16.188
21539,-31.608,-13.705
21551,-27.163,-19.276
21563,-25.146,-15.263
21574,-24.983,-10.695
21586,-23.875,-11.187
21598,-24.695,-12.199
21609,-27.997,-11.229
21621,-27.675,-14.881
21633,-25.437,-15.42
21645,-24.172,-17.192
21656,-25.561,-15.774
21668,-24.101,-15.401
21680,-23.88,-15.329
21691,-26.345,-17.18
21703,-23.457,-15.467
21715,-26.157,-15.81
21727,-25.46,-14.567
21738,-24.556,-14.035
21750,-28.674,-15.593
21762,-26.413,-14.679
21773,-25.339,-14.37
21785,-24.533,-14.019
21797,-26.819,-12.901
21809,-27.259,-13.968
21820,-26.753,-12.844
21832,-27.076,-16.617
21844,-28.01,-17.855
21855,-28.625,-15.198
21867,-30.262,-17.213
21879,-28.268,-14.069
21891,-26.69,-12.898
21902,-25.246,-17.863
21914,-26.214,-16.187
21926,-27.959,-16.453
21938,-26.579,-14.911
21949,-27.552,-15.553
21961,-27.967,-18.937
21973,-28.184,-14.449
21984,-26.127,-12.23
21996,-25.524,-15.046
22008,-28.457,-14.927
22020,-28.291,-13.755
22031,-31.202,-13.469
22043,-28.081,-12.912
22055,-26.413,-11.433
22066,-26.92,-15.073
22078,-27.732,-10.974
22090,-28.106,-10.126
22102,-28.591,-12.889
22113,-27.82,-13.705
22125,-27.569,-13.879
22137,-25.561,-14.293
22148,-23.611,-11.522
22160,-25.756,-12.517
22172,-27.406,-13.518
22184,-30.353,-13.798
22195,-29.629,-19.626
22207,-26.057,-13.973
22219,-25.39,-12.449
22230,-28.041,-14.631
22242,-28.22,-13.596
22254,-27.89,-13.226
22266,-26.423,-13.192
22277,-24.555,-13.26
22289,-26.067,-11.244
22301,-27.177,-12.384
22313,-30.268,-12.938
22324,-27.85,-13.171
22336,-25.406,-18.246
22348,-24.068,-17.307
22359,-25.582,-14.383
22371,-27.362,-14.532
22383,-28.85,-15.046
22395,-29.269,-15.024
22406,-26.917,-15.837
22418,-27.721,-14.778
22430,-31.096,-16.516
22441,-30.255,-19.243
22453,-30.556,-16.258
22465,-29.263,-16.119
22477,-24.898,-13.434
22488,-25.987,-14.846
22500,-25.319,-16.532
22512,-27.508,-13.946
22523,-27.245,-11.454
22535,-26.844,-14.166
22547,-29.808,-11.424
22559,-26.596,-13.455
22570,-25.382,-12.481
22582,-28.321,-13.906
22594,-29.5,-15.667
22605,-31.552,-19.513
22617,-28.852,-16.486
22629,-28.287,-12.159
22641,-30.51,-14.892
22652,-28.175,-11.491
22664,-27.435,-10.921
22676,-26.861,-11.635
22688,-29.279,-14.903
22699,-29.502,-13.362
22711,-28.134,-17.504
22723,-27.711,-17.64
22734,-28.114,-15.873
22746,-26.711,-13.324
22758,-28.568,-13.851
22770,-30.98,-14.188
22781,-30.207,-14.363
22793,-30.714,-13.313
22805,-31.359,-12.352
22816,-29.229,-14.88
22828,-28.353,-16.386
22840,-29.285,-14.418
22852,-28.819,-10.89
22863,-29.795,-13.553
22875,-31.934,-16.101
22887,-31.743,-17.517
22898,-28.266,-14.878
22910,-26.373,-13.696
22922,-25.946,-13.119
22934,-25.043,-14.641
22945,-26.064,-15.359
22957,-27.361,-15.589
22969,-27.177,-15.442
22980,-26.948,-13.927
22992,-26.975,-15.642
23004,-27.234,-13.831
23016,-25.59,-12.437
23027,-27.475,-15.756
23039,-27.708,-13.796
23051,-26.376,-13.465
23063,-29.337,-15.907
23074,-27.216,-16.569
23086,-27.222,-17.552
23098,-30.212,-16.261
23109,-29.753,-14.724
23121,-25.482,-14.905
23133,-29.02,-15.754
23145,-34.39,-15.426
23156,-30.743,-15.683
23168,-30.368,-15.37
23180,-27.994,-17.094
23191,-27.054,-17.451
23203,-27.341,-15.595
23215,-27.624,-15.003
23227,-28.147,-13.352
23238,-28.385,-14.753
23250,-28.014,-16.88
23262,-28.006,-15.363
23273,-27.017,-14.174
23285,-26.676,-15.424
23297,-27.891,-15.443
23309,-30.385,-14.457
23320,-32.076,-12.905
23332,-28.606,-15.561
23344,-29.082,-20.957
23355,-28.949,-20.37
23367,-29.459,-16.791
23379,-28.145,-16.205
23391,-30.551,-18.678
23402,-27.824,-17.652
23414,-26.395,-13.984
23426,-28.745,-10.975
23438,-27.775,-16.395
23449,-27.277,-15.532
23461,-28.789,-15.983
23473,-28.755,-14.423
23484,-29.397,-13.971
23496,-28.935,-16.462
23508,-30.065,-14.469
23520,-27.347,-17.001
23531,-28.665,-17.222
23543,-27.865,-15.421
23555,-28.211,-15.239
23566,-28.333,-13.315
23578,-26.316,-12.196
23590,-24.909,-12.929
23602,-27.32,-13.215
23613,-27.924,-13.523
23625,-29.854,-11.84
23637,-31.133,-12.269
23648,-29.99,-14.946
23660,-31.965,-15.294
23672,-32.62,-18.259
23684,-29.115,-20.289
23695,-25.219,-16.924
23707,-22.139,-14.996
23719,-23.21,-13.322
23730,-27.698,-14.642
23742,-27.263,-16.147
23754,-26.338,-14.976
23766,-24.901,-15.498
23777,-27.908,-16.622
23789,-26.409,-14.165
23801,-24.434,-16.188
23813,-28.695,-13.451
23824,-29.269,-11.934
23836,-27.368,-11.856
23848,-31.547,-16.243
23859,-30.945,-13.119
23871,-30.876,-13.897
23883,-30.041,-14.65
23895,-28.541,-15.12
23906,-26.827,-13.543
23918,-28.078,-15.564
23930,-28.246,-16.893
23941,-27.222,-14.18
23953,-25.544,-14.667
23965,-28.837,-15.742
23977,-30.13,-13.788
23988,-32.294,-13.603
