FFT,Power Spectrum
Frequency[Hz],Level-L[dB],Level-R[dB]
11.719,-18.477,-20.717
23.438,1.8828,-0.70559
35.156,2.9723,0.094816
46.875,9.4071,6.6196
58.594,8.6813,6.077
70.313,9.249,7.9361
82.031,9.809,8.4236
93.75,10.915,8.9935
105.47,9.7344,7.663
117.19,9.5933,7.706
128.91,11.302,8.7625
140.63,11.53,7.2729
152.34,5.6551,3.1431
164.06,2.13,0.13208
175.78,2.0141,2.7839
187.5,8.4418,8.0687
199.22,10.75,10.03
210.94,7.8432,8.6916
222.66,14.949,8.684
234.38,15.978,5.7816
246.09,8.8808,4.3227
257.81,7.297,5.5799
269.53,5.6598,6.2318
281.25,5.5581,6.7104
292.97,5.0581,4.9401
304.69,7.3374,3.3554
316.41,8.1575,5.6704
328.13,8.6391,6.4756
339.84,8.9186,5.4618
351.56,9.4001,7.4524
363.28,11.634,8.8398
375,11.407,9.4283
386.72,11.899,9.3811
398.44,9.7564,8.3665
410.16,8.1865,8.2004
421.88,9.646,8.3976
433.59,12,9.4843
445.31,14.669,10.45
457.03,13.929,9.9003
468.75,12.419,10.275
480.47,10.884,9.9714
492.19,12.907,11.066
503.91,14.397,12.285
515.63,10.293,10.056
527.34,6.5849,7.0079
539.06,11.179,8.3622
550.78,13.052,10.37
562.5,12.452,11.214
574.22,9.6019,10.253
585.94,7.0249,5.8382
597.66,7.6746,5.0395
609.38,8.8919,6.21
621.09,8.388,6.6905
632.81,9.0125,6.1827
644.53,9.5914,7.0546
656.25,11.053,5.8201
667.97,11.362,2.9461
679.69,12.821,2.7647
691.41,12.186,7.7285
703.13,8.1145,7.438
714.84,7.1346,6.138
726.56,8.4758,7.0457
738.28,7.9297,7.1318
750,7.5971,6.207
761.72,8.3135,7.5426
773.44,9.7239,8.9276
785.16,6.9564,8.9434
796.88,6.3074,5.9575
808.59,7.8599,4.928
820.31,10.166,5.8518
832.03,10.217,8.5619
843.75,12.272,10.655
855.47,14.756,12.971
867.19,14.783,11.846
878.91,12.478,10.014
890.63,11.541,10.349
902.34,11.32,10.487
914.06,10.754,6.5109
925.78,7.3629,4.7224
937.5,11.975,4.3753
949.22,14.34,2.5974
960.94,14.295,6.6596
972.66,12.893,9.3825
984.38,10.975,10.428
996.09,8.7412,10.49
1007.8,6.5284,8.8002
1019.5,6.2313,8.7441
1031.3,7.9838,7.0134
1043,10.802,4.3933
1054.7,11.254,3.9077
1066.4,11.883,3.6346
1078.1,12.192,6.78
1089.8,11.516,6.2171
1101.6,8.157,4.1313
1113.3,6.4082,1.8388
1125,4.5024,3.5745
1136.7,4.8707,7.0306
1148.4,5.3924,7.5386
1160.2,8.501,5.6251
1171.9,7.6004,3.2715
1183.6,7.2236,3.5366
1195.3,11.399,9.9537
1207,13.967,10.288
1218.8,12.402,7.5535
1230.5,10.89,8.2957
1242.2,12.085,8.7144
1253.9,12.685,7.2513
1265.6,12.286,7.1831
1277.3,11.29,7.7023
1289.1,10.319,7.9152
1300.8,10.139,6.5885
1312.5,6.9656,7.0067
1324.2,8.0084,7.3998
1335.9,8.619,3.7665
1347.7,8.588,4.6827
1359.4,7.1625,5.4742
1371.1,5.3875,2.8625
1382.8,7.5511,2.38
1394.5,9.0445,2.7947
1406.3,9.077,3.1772
1418,7.7554,5.5224
1429.7,7.9345,4.6521
1441.4,9.6692,3.3657
1453.1,7.4398,6.443
1464.8,6.4137,8.3174
1476.6,7.0541,8.727
1488.3,9.2877,8.1217
1500,10.141,6.9911
1511.7,10.445,5.9438
1523.4,8.9159,6.2551
1535.2,4.3785,5.9308
1546.9,7.6478,4.7311
1558.6,8.8277,5.6565
1570.3,8.8314,5.5369
1582,6.0529,3.7309
1593.8,5.1233,4.8222
1605.5,4.8624,5.9911
1617.2,5.3446,3.5661
1628.9,7.2065,4.1855
1640.6,7.9019,4.7183
1652.3,7.0592,4.6511
1664.1,6.3345,5.5162
1675.8,6.6132,2.9669
1687.5,7.1261,0.78735
1699.2,7.1751,2.7594
1710.9,5.4833,4.2928
1722.7,3.5411,3.9096
1734.4,5.5629,6.957
1746.1,8.1815,6.8962
1757.8,7.1927,3.7829
1769.5,6.7067,2.6286
1781.3,7.9666,0.24393
1793,6.6813,3.8239
1804.7,3.8409,4.931
1816.4,4.9623,3.2289
1828.1,6.9071,1.7331
1839.8,7.7749,3.5604
1851.6,6.0187,2.7938
1863.3,7.2551,2.4669
1875,6.7134,4.3372
1886.7,4.6439,5.1615
1898.4,5.6724,6.555
1910.2,5.3189,8.2135
1921.9,5.1386,6.2919
1933.6,6.0655,4.1453
1945.3,7.9705,5.1359
1957,7.3936,5.1433
1968.8,3.4694,5.681
1980.5,3.0601,6.5513
1992.2,7.8484,6.4215
2003.9,10.299,6.5453
2015.6,8.5743,6.7333
2027.3,5.2813,5.3035
2039.1,4.6132,3.5501
2050.8,7.3676,2.3926
2062.5,9.5941,3.0881
2074.2,10.04,5.4881
2085.9,8.5063,6.5142
2097.7,6.7954,6.6863
2109.4,6.6446,5.1955
2121.1,7.5546,5.3341
2132.8,7.1283,4.5282
2144.5,6.3352,2.2512
2156.3,6.8917,4.9906
2168,5.9057,5.9167
2179.7,5.2786,4.7683
2191.4,6.9868,5.6623
2203.1,5.9499,5.146
2214.8,5.6505,3.9401
2226.6,7.7115,3.2423
2238.3,7.6591,3.523
2250,6.8154,3.996
2261.7,6.4566,3.6232
2273.4,6.6503,3.9877
2285.2,4.6878,4.9549
2296.9,6.8687,7.4935
2308.6,9.7746,6.6452
2320.3,9.3218,4.6915
2332,9.5423,3.7207
2343.8,8.6165,2.1156
2355.5,5.9504,0.96356
2367.2,6.1277,3.4746
2378.9,8.3939,6.8383
2390.6,5.9409,1.3799
2402.3,3.1089,2.9109
2414.1,6.8478,4.9097
2425.8,7.7257,6.3066
2437.5,10.269,5.681
2449.2,11.34,6.2448
2460.9,9.7148,1.5417
2472.7,8.5611,0.066933
2484.4,8.8411,0.48175
2496.1,7.2917,1.6092
2507.8,4.9915,1.1549
2519.5,5.7251,1.5409
2531.3,7.5201,1.4226
2543,7.9528,5.4021
2554.7,8.1116,6.367
2566.4,8.4732,3.6918
2578.1,8.9592,6.018
2589.8,7.3466,8.9728
2601.6,5.8114,6.1679
2613.3,8.3447,5.4743
2625,9.2923,7.2467
2636.7,5.6088,5.2118
2648.4,3.3753,3.663
2660.2,3.9893,5.0763
2671.9,5.3747,6.44
2683.6,9.1913,5.7218
2695.3,7.9794,5.2287
2707,6.6718,3.6817
2718.8,7.3437,1.333
2730.5,4.9867,1.0848
2742.2,6.3876,1.2254
2753.9,6.4753,2.5399
2765.6,3.2103,5.3819
2777.3,2.9229,6.3496
2789.1,3.1004,4.5247
2800.8,3.2236,3.2121
2812.5,3.6596,1.108
2824.2,6.6038,0.52746
2835.9,8.2221,-1.633
2847.7,4.661,1.1628
2859.4,2.9053,0.44958
2871.1,2.9938,-0.27573
2882.8,3.7196,1.2742
2894.5,1.7423,1.288
2906.3,1.186,4.3308
2918,3.6841,4.2998
2929.7,4.5349,1.0698
2941.4,5.1442,1.4244
2953.1,4.7877,1.3345
2964.8,3.9949,0.96099
2976.6,5.0966,2.3465
2988.3,5.7824,1.2628
3000,2.3838,-0.33295
3011.7,6.3833,2.631
3023.4,3.9304,2.138
3035.2,1.1672,-0.92628
3046.9,1.8142,0.24147
3058.6,4.6424,0.3821
3070.3,3.8263,-1.1237
3082,1.9975,-0.8352
3093.8,-0.76655,-0.56714
3105.5,-0.80801,-1.2918
3117.2,1.8376,-1.6628
3128.9,2.1116,-1.5935
3140.6,5.1992,-1.0713
3152.3,5.041,2.5532
3164.1,2.4211,-1.158
3175.8,1.47,-2.2925
3187.5,4.2464,0.66521
3199.2,6.1417,0.82919
3210.9,3.8036,-1.9562
3222.7,2.6121,0.47733
3234.4,1.5934,-3.7524
3246.1,0.24953,-2.0653
3257.8,1.3346,-0.40395
3269.5,2.5656,0.14148
3281.3,3.52,0.14224
3293,1.8988,-1.9849
3304.7,2.2856,-0.28585
3316.4,1.7249,0.1971
3328.1,1.5908,0.9082
3339.8,-0.89324,0.23768
3351.6,1.5448,-5.0702
3363.3,2.5811,-1.7962
3375,2.8263,-0.79841
3386.7,1.3159,-1.4816
3398.4,-0.91394,-0.26585
3410.2,-0.0029099,-0.055931
3421.9,1.7988,-1.1854
3433.6,2.677,-1.1502
3445.3,0.12765,1.0834
3457,1.3509,0.1622
3468.8,1.5056,-0.38509
3480.5,1.3957,0.27362
3492.2,1.6453,-0.46554
3503.9,1.7784,0.98357
3515.6,-0.22319,1.1143
3527.3,0.01522,-2.2595
3539.1,-0.084969,-3.431
3550.8,2.0477,-2.6135
3562.5,0.85337,-1.2677
3574.2,0.0057051,-4.2692
3585.9,2.0338,-2.7172
3597.7,2.1325,-2.5615
3609.4,2.8701,-1.4278
3621.1,2.1202,-3.4347
3632.8,0.1098,-3.5371
3644.5,0.78701,-0.36976
3656.3,2.1491,1.1794
3668,0.67412,1.111
3679.7,-1.5757,1.2589
3691.4,-2.2735,0.58387
3703.1,1.0182,-1.7292
3714.8,2.9816,-3.2884
3726.6,1.9002,0.45268
3738.3,1.077,0.77643
3750,1.0989,-1.6624
3761.7,-1.1378,-1.8384
3773.4,-0.63706,-3.7206
3785.2,-0.84413,-2.9276
3796.9,-2.0199,-3.6952
3808.6,0.31203,-0.64665
3820.3,1.4545,-2.836
3832,2.6678,-2.5185
3843.8,2.819,-1.336
3855.5,-0.72966,-2.6902
3867.2,-0.87289,-0.44488
3878.9,1.719,-0.76817
3890.6,2.3499,-1.7717
3902.3,3.5172,-1.1092
3914.1,2.025,-1.0052
3925.8,1.4344,0.94187
3937.5,1.4657,0.70134
3949.2,1.05,-0.62394
3960.9,-0.42399,-2.2738
3972.7,0.19976,-0.61664
3984.4,-0.73496,-0.52034
3996.1,-2.4525,-4.3844
4007.8,-2.2677,-4.2556
4019.5,0.76662,-4.3187
4031.3,1.9732,-2.047
4043,1.1954,-3.2073
4054.7,-1.2296,-4.9137
4066.4,-0.99958,-4.7881
4078.1,-0.91972,-2.6394
4089.8,-0.73261,-3.3502
4101.6,1.4736,-2.0677
4113.3,0.79055,-3.4916
4125,-0.058006,-2.4603
4136.7,-3.656,-3.907
4148.4,-4.2213,-5.9317
4160.2,-2.4669,-4.8327
4171.9,-2.161,-3.2592
4183.6,-3.9702,-2.6072
4195.3,-3.7659,-2.498
4207,-1.7703,-3.3903
4218.8,-2.5324,-3.0001
4230.5,-1.206,-3.1514
4242.2,-2.0962,-1.0899
4253.9,-2.1266,-0.60054
4265.6,-1.132,-2.0876
4277.3,-3.4242,-3.6003
4289.1,-2.9992,-1.7153
4300.8,-1.4271,-0.84943
4312.5,-1.2234,0.43957
4324.2,-3.0648,1.507
4335.9,-4.2536,-0.41248
4347.7,-2.9373,-1.2646
4359.4,-2.3569,-3.592
4371.1,-3.2739,-6.1919
4382.8,-4.2956,-2.4726
4394.5,-4.8374,-4.2972
4406.3,-2.4869,-2.261
4418,-0.082801,-2.0556
4429.7,0.54366,-0.59874
4441.4,-0.069769,-2.3908
4453.1,-0.66699,-5.7579
4464.8,0.55471,-6.5081
4476.6,1.5765,-2.6932
4488.3,0.6394,-0.51591
4500,0.71419,-0.54244
4511.7,0.17162,-4.5752
4523.4,-0.1467,-0.75634
4535.2,0.034057,2.3943
4546.9,-1.3556,-1.6811
4558.6,-1.3247,-2.928
4570.3,-1.7601,-2.0682
4582,-0.5327,-1.1095
4593.8,-0.32274,-3.5545
4605.5,1.8017,-1.7673
4617.2,0.31826,-1.0532
4628.9,-1.7126,-3.8951
4640.6,-2.757,-6.9071
4652.3,-1.6429,-3.7531
4664.1,-1.1542,-2.5296
4675.8,-1.6941,-1.2889
4687.5,-0.67304,-2.1322
4699.2,-2.2587,-4.658
4710.9,-4.4151,-5.724
4722.7,-2.1355,-4.3205
4734.4,-2.3831,0.37746
4746.1,-4.7468,-0.46633
4757.8,-2.2748,-1.3763
4769.5,-0.97859,-3.6691
4781.3,0.60152,-3.3093
4793,0.78958,-2.5979
4804.7,-3.3485,-2.8927
4816.4,-2.5306,-5.8223
4828.1,-2.4869,-5.6422
4839.8,-3.4809,-6.209
4851.6,-3.1469,-3.3046
4863.3,-8.1505,-5.0048
4875,-6.3115,-3.5326
4886.7,-5.523,-1.9523
4898.4,-6.593,-3.3505
4910.2,-5.2798,-5.2447
4921.9,-4.361,-6.2367
4933.6,-0.28756,-6.2818
4945.3,-0.94534,-2.0365
4957,-3.0193,-2.9662
4968.8,-4.4268,-5.7114
4980.5,-5.204,-2.9001
4992.2,-4.4672,-4.6165
5003.9,-2.6822,-4.6242
5015.6,-4.3474,-4.9811
5027.3,-6.1283,-4.4256
5039.1,-4.3802,-5.3213
5050.8,-4.333,-5.8214
5062.5,-4.83,-5.5284
5074.2,-4.4207,-3.8701
5085.9,-4.6239,-3.7417
5097.7,-5.5345,-2.2773
5109.4,-2.3892,-2.3433
5121.1,-3.9918,-1.6577
5132.8,-6.5572,-1.3894
5144.5,-4.6701,-1.5865
5156.3,-5.47,-3.9357
5168,-5.3058,-4.6882
5179.7,-7.2537,-5.8333
5191.4,-6.958,-2.4437
5203.1,-6.1945,-2.3113
5214.8,-5.0525,-6.7826
5226.6,-3.2176,-5.5304
5238.3,-2.8362,-4.2728
5250,-4.2605,-6.122
5261.7,-3.8869,-6.0243
5273.4,-3.7581,-4.5713
5285.2,-2.7355,-6.3784
5296.9,-0.66804,-7.9301
5308.6,-3.1016,-6.4281
5320.3,-5.9592,-5.0119
5332,-4.2214,-5.2767
5343.8,-2.4215,-3.379
5355.5,-2.248,-3.8509
5367.2,-1.8439,-4.2332
5378.9,-0.52113,-3.5888
5390.6,-2.8541,-5.7056
5402.3,-3.0962,-5.6632
5414.1,-2.299,-4.5798
5425.8,-0.95366,-6.1515
5437.5,-3.1533,-4.5279
5449.2,-5.1504,-2.3848
5460.9,-5.3773,-2.6899
5472.7,-3.5205,-3.3835
5484.4,0.14599,-4.2783
5496.1,-3.9375,-6.2092
5507.8,-4.799,-5.6169
5519.5,-3.2251,-7.9826
5531.3,-4.0566,-6.7894
5543,-3.5945,-6.5203
5554.7,-4.1313,-7.6356
5566.4,-1.5049,-5.5644
5578.1,-1.1353,-4.8793
5589.8,-3.7781,-5.7478
5601.6,-3.5763,-3.8299
5613.3,-5.5096,-1.5146
5625,-3.6442,-2.5325
5636.7,-3.8539,-2.9217
5648.4,-2.8602,-5.6869
5660.2,-3.0973,-8.2089
5671.9,-2.2504,-8.4692
5683.6,-4.7027,-9.6279
5695.3,-4.1401,-10.541
5707,-3.8328,-7.1088
5718.8,-4.4237,-7.6694
5730.5,-2.0691,-8.3719
5742.2,-5.1245,-6.6984
5753.9,-5.7885,-5.4159
5765.6,-3.5759,-4.8869
5777.3,-4.4749,-5.5646
5789.1,-4.4022,-7.3358
5800.8,-2.2654,-6.0279
5812.5,-3.7183,-7.2824
5824.2,-8.0818,-9.8925
5835.9,-5.4992,-6.0846
5847.7,-6.1399,-5.0768
5859.4,-3.8662,-5.1611
5871.1,-4.5733,-5.7973
5882.8,-2.8842,-7.9227
5894.5,-2.8872,-4.3424
5906.3,-4.0141,-4.4622
5918,-4.4119,-6.6546
5929.7,-4.7453,-6.6549
5941.4,-2.7573,-4.1344
5953.1,-3.3441,-4.9832
5964.8,-5.9722,-8.7149
5976.6,-6.0235,-4.8075
5988.3,-4.1826,-4.731
6000,-4.6342,-6.1121
6011.7,-5.2179,-8.1103
6023.4,-6.9156,-7.7375
6035.2,-5.0413,-5.1737
6046.9,-4.8857,-4.6067
6058.6,-4.8183,-5.4555
6070.3,-3.9635,-6.5937
6082,-4.1635,-6.463
6093.8,-6.6259,-7.4517
6105.5,-6.5218,-6.1032
6117.2,-6.9905,-7.1055
6128.9,-6.4339,-6.9954
6140.6,-4.426,-7.6064
6152.3,-4.3082,-7.1906
6164.1,-5.0218,-4.5457
6175.8,-5.7494,-4.6649
6187.5,-7.4645,-4.3069
6199.2,-5.5632,-2.6728
6210.9,-4.7019,-5.9242
6222.7,-4.3709,-9.5974
6234.4,-4.1959,-7.1429
6246.1,-5.4139,-4.2502
6257.8,-5.1794,-3.0079
6269.5,-5.2919,-3.718
6281.3,-6.4333,-7.5472
6293,-9.4383,-3.9297
6304.7,-6.6868,-5.2272
6316.4,-5.7472,-6.6334
6328.1,-7.9729,-5.5024
6339.8,-5.3087,-5.2647
6351.6,-4.8685,-6.7781
6363.3,-5.195,-6.1298
6375,-5.3782,-8.2087
6386.7,-6.072,-8.583
6398.4,-4.6646,-6.8159
6410.2,-8.1832,-9.8166
6421.9,-5.7976,-6.1072
6433.6,-4.9122,-4.3275
6445.3,-6.3905,-6.6582
6457,-7.3291,-7.2184
6468.8,-5.5447,-8.931
6480.5,-5.8882,-8.4294
6492.2,-6.0546,-5.7555
6503.9,-6.5602,-5.7955
6515.6,-6.5385,-5.4073
6527.3,-7.1683,-4.4327
6539.1,-6.195,-7.823
6550.8,-6.5321,-6.4452
6562.5,-8.316,-5.2046
6574.2,-5.2849,-7.0841
6585.9,-3.1214,-5.2844
6597.7,-5.6641,-7.8785
6609.4,-7.4237,-6.3585
6621.1,-4.2461,-5.3927
6632.8,-4.772,-3.3587
6644.5,-7.5982,-7.0527
6656.3,-8.1267,-6.3241
6668,-5.6478,-7.5781
6679.7,-4.7063,-5.2624
6691.4,-4.5741,-4.5674
6703.1,-7.0077,-4.7236
6714.8,-5.8944,-5.5032
6726.6,-3.7489,-7.8333
6738.3,-4.6616,-8.6634
6750,-7.1552,-8.9456
6761.7,-8.5493,-8.8359
6773.4,-6.6188,-8.3353
6785.2,-5.6461,-6.6082
6796.9,-4.9882,-4.7983
6808.6,-4.7075,-5.1771
6820.3,-3.6402,-5.9229
6832,-4.872,-9.3299
6843.8,-5.1202,-6.6268
6855.5,-5.1715,-4.8837
6867.2,-6.1439,-7.7253
6878.9,-7.943,-8.0005
6890.6,-5.2163,-7.0369
6902.3,-3.9192,-4.8247
6914.1,-4.7838,-4.6361
6925.8,-5.3759,-3.84
6937.5,-5.0557,-4.3332
6949.2,-5.8981,-6.1594
6960.9,-6.3196,-4.3612
6972.7,-5.1956,-5.3172
6984.4,-5.047,-7.8358
6996.1,-5.1803,-8.2301
7007.8,-4.4009,-9.6328
7019.5,-5.5098,-9.7338
7031.3,-7.5178,-7.5699
7043,-6.5058,-8.431
7054.7,-4.8438,-6.5828
7066.4,-4.9426,-5.7472
7078.1,-5.5573,-5.8802
7089.8,-5.9024,-7.5178
7101.6,-4.898,-12.244
7113.3,-4.4163,-10.823
7125,-3.1114,-10.198
7136.7,-4.4469,-7.5843
7148.4,-5.6293,-5.2342
7160.2,-4.5208,-4.9659
7171.9,-6.5437,-8.7652
7183.6,-5.8364,-8.5489
7195.3,-5.3384,-8.4765
7207,-4.8454,-6.58
7218.8,-7.3441,-6.2538
7230.5,-8.8507,-7.0285
7242.2,-6.5277,-4.5744
7253.9,-5.7527,-5.1268
7265.6,-7.6284,-7.0159
7277.3,-6.1172,-8.5888
7289.1,-5.8933,-8.2765
7300.8,-8.8852,-6.6726
7312.5,-9.0236,-7.1683
7324.2,-7.9097,-4.2902
7335.9,-6.1368,-2.9891
7347.7,-5.3973,-5.6039
7359.4,-7.411,-7.4229
7371.1,-7.9207,-5.8191
7382.8,-5.7055,-5.7435
7394.5,-7.7015,-5.4785
7406.3,-6.0729,-8.3997
7418,-6.1012,-10.268
7429.7,-9.2237,-8.1688
7441.4,-8.245,-6.1317
7453.1,-8.2404,-6.2652
7464.8,-6.972,-6.0324
7476.6,-5.8934,-6.9523
7488.3,-3.6542,-10.389
7500,-6.0269,-9.4984
7511.7,-6.8331,-8.2467
7523.4,-7.7956,-9.0002
7535.2,-8.5401,-7.6987
7546.9,-8.6639,-5.4107
7558.6,-6.1246,-6.0398
7570.3,-4.9482,-9.3035
7582,-8.4032,-10.101
7593.8,-8.8874,-10.046
7605.5,-8.4747,-10.275
7617.2,-8.9438,-9.5918
7628.9,-9.1139,-6.8664
7640.6,-7.7095,-5.1282
7652.3,-3.5369,-7.4746
7664.1,-5.3001,-6.2993
7675.8,-9.3472,-9.7451
7687.5,-7.3929,-9.0542
7699.2,-9.249,-7.1996
7710.9,-7.294,-8.9441
7722.7,-5.5927,-8.587
7734.4,-8.2393,-10.236
7746.1,-9.6857,-11.776
7757.8,-9.5306,-9.6518
7769.5,-7.7745,-6.2323
7781.3,-8.6114,-6.7142
7793,-13.163,-8.3749
7804.7,-13.642,-7.2903
7816.4,-10.128,-7.5647
7828.1,-6.4779,-8.2721
7839.8,-6.915,-7.9917
7851.6,-6.1044,-10.084
7863.3,-4.6153,-8.8315
7875,-4.4369,-8.9271
7886.7,-8.6584,-8.6815
7898.4,-8.4368,-7.0612
7910.2,-5.9775,-5.6949
7921.9,-5.2579,-8.0611
7933.6,-5.4704,-8.9432
7945.3,-5.0341,-8.8613
7957,-7.2672,-8.7377
7968.8,-9.4462,-8.2096
7980.5,-8.367,-8.3362
7992.2,-7.4028,-8.965
8003.9,-8.9219,-12.261
8015.6,-6.7601,-9.6586
8027.3,-7.2573,-9.9066
8039.1,-8.157,-9.0396
8050.8,-8.3023,-9.6326
8062.5,-7.552,-8.3738
8074.2,-8.3934,-10.742
8085.9,-8.9427,-10.639
8097.7,-8.6719,-9.858
8109.4,-7.8909,-6.8613
8121.1,-6.1729,-6.4694
8132.8,-8.2284,-8.7142
8144.5,-10.07,-7.2478
8156.3,-8.8045,-7.4534
8168,-5.7656,-9.4285
8179.7,-4.7692,-7.7581
8191.4,-9.8,-5.337
8203.1,-10.859,-7.9529
8214.8,-7.3289,-6.8727
8226.6,-7.4957,-5.7005
8238.3,-8.9597,-8.8149
8250,-9.4227,-12.701
8261.7,-6.6996,-9.6973
8273.4,-6.0556,-9.3951
8285.2,-5.8574,-8.9608
8296.9,-8.8391,-9.6998
8308.6,-9.071,-11.884
8320.3,-4.9906,-9.198
8332,-4.8639,-6.7986
8343.8,-5.8228,-9.1831
8355.5,-8.6761,-9.674
8367.2,-11.101,-9.6926
8378.9,-9.4158,-9.6047
8390.6,-9.4449,-9.7273
8402.3,-9.404,-8.5836
8414.1,-8.4037,-11.272
8425.8,-8.2036,-10.075
8437.5,-8.6438,-9.8756
8449.2,-10.147,-9.6393
8460.9,-8.0658,-6.6762
8472.7,-5.2165,-9.4275
8484.4,-7.0661,-10.188
8496.1,-8.7144,-10.46
8507.8,-7.7843,-10.568
8519.5,-7.2704,-11.279
8531.3,-9.0025,-12.599
8543,-7.4934,-10.464
8554.7,-7.853,-9.7603
8566.4,-9.9617,-13.32
8578.1,-8.0491,-13.498
8589.8,-8.333,-11.796
8601.6,-10.098,-12.268
8613.3,-12.425,-12.531
8625,-10.488,-10.338
8636.7,-8.4281,-10.597
8648.4,-10.237,-10.102
8660.2,-8.4734,-12.769
8671.9,-8.9395,-13.625
8683.6,-9.8692,-11.173
8695.3,-10.015,-9.7176
8707,-10.712,-12.227
8718.8,-10.199,-10.363
8730.5,-8.679,-10.594
8742.2,-9.89,-10.399
8753.9,-10.784,-6.8692
8765.6,-11.32,-5.6307
8777.3,-8.4004,-6.7464
8789.1,-6.7102,-8.859
8800.8,-7.1056,-10.086
8812.5,-9.3506,-11.614
8824.2,-8.2732,-13.093
8835.9,-7.2401,-13.399
8847.7,-9.8107,-15.239
8859.4,-10.972,-12.043
8871.1,-8.7275,-9.6626
8882.8,-9.9018,-10.432
8894.5,-12.712,-8.4563
8906.3,-8.7004,-6.1184
8918,-7.3124,-6.0487
8929.7,-7.7467,-8.7306
8941.4,-7.3209,-10.369
8953.1,-9.3995,-8.8334
8964.8,-10.227,-7.7555
8976.6,-9.7059,-8.8501
8988.3,-9.6716,-10.908
9000,-7.6549,-12.01
9011.7,-10.001,-12.81
9023.4,-12.162,-12.072
9035.2,-10.906,-11.89
9046.9,-10.062,-10.88
9058.6,-7.0601,-9.8261
9070.3,-6.6754,-12.393
9082,-7.5745,-13.503
9093.8,-8.4694,-11.065
9105.5,-8.9819,-12.062
9117.2,-8.9524,-13.14
9128.9,-7.7375,-12.588
9140.6,-6.9255,-13.224
9152.3,-8.081,-11.363
9164.1,-11.859,-11.727
9175.8,-8.3535,-12.916
9187.5,-5.8674,-11.447
9199.2,-9.3519,-9.1698
9210.9,-10.287,-8.7836
9222.7,-10.982,-11.191
9234.4,-11.614,-10.642
9246.1,-9.7893,-9.0683
9257.8,-9.5597,-9.8363
9269.5,-11.191,-8.8767
9281.3,-8.1799,-9.5227
9293,-9.4155,-11.618
9304.7,-10.239,-11.265
9316.4,-9.4908,-9.4954
9328.1,-8.5136,-11.627
9339.8,-7.6128,-10.538
9351.6,-8.4013,-7.9249
9363.3,-10.159,-9.1133
9375,-10.544,-10.745
9386.7,-9.1368,-12.124
9398.4,-7.7242,-12.816
9410.2,-9.9035,-12.902
9421.9,-11.541,-10.545
9433.6,-9.0985,-9.9218
9445.3,-8.0561,-9.511
9457,-7.303,-8.6724
9468.8,-9.803,-10.379
9480.5,-11.834,-12.558
9492.2,-11.474,-9.9402
9503.9,-9.8697,-10.987
9515.6,-9.2812,-14.014
9527.3,-10.174,-15.019
9539.1,-10.73,-12.288
9550.8,-7.9362,-8.3118
9562.5,-7.7779,-9.969
9574.2,-9.6305,-11.172
9585.9,-8.8407,-8.8087
9597.7,-13.294,-8.9687
9609.4,-9.3518,-11.847
9621.1,-9.4454,-8.0851
9632.8,-11.649,-7.0166
9644.5,-8.8135,-10.857
9656.3,-10.779,-11.723
9668,-12.618,-12.186
9679.7,-12.136,-14.206
9691.4,-10.014,-9.9666
9703.1,-8.704,-10.954
9714.8,-11.368,-10.365
9726.6,-10.3,-10.056
9738.3,-10.671,-10.983
9750,-6.9954,-12.152
9761.7,-10.472,-12.935
9773.4,-14.597,-9.913
9785.2,-11.479,-11.172
9796.9,-13.216,-10.634
9808.6,-12.269,-9.9097
9820.3,-10.929,-11.966
9832,-10.035,-10.409
9843.8,-10.937,-10.239
9855.5,-12.416,-12.298
9867.2,-12.2,-10.806
9878.9,-10.604,-10.453
9890.6,-10.996,-12.192
9902.3,-15.199,-13.825
9914.1,-12.667,-10.841
9925.8,-10.911,-10.681
9937.5,-10.065,-10.385
9949.2,-11.561,-9.5239
9960.9,-11.529,-13.341
9972.7,-10.044,-13.996
9984.4,-8.3818,-10.52
9996.1,-8.7724,-10.001
10008,-11.813,-9.5431
10020,-11.621,-10.279
10031,-10.111,-9.1167
10043,-10.502,-9.5214
10055,-12.809,-10.186
10066,-10.196,-15.389
10078,-9.1618,-8.355
10090,-11.895,-10.262
10102,-12.449,-11.241
10113,-12.141,-11.32
10125,-12.122,-9.9513
10137,-12.098,-10.65
10148,-11.023,-9.7495
10160,-9.2461,-10.754
10172,-9.481,-12.175
10184,-10.568,-12.123
10195,-9.1196,-11.759
10207,-10.358,-10.829
10219,-10.763,-11.968
10230,-7.2759,-11.562
10242,-7.2722,-11.951
10254,-8.8306,-11.714
10266,-9.8639,-11.152
10277,-9.1315,-12.046
10289,-9.5337,-13.995
10301,-11.707,-11.847
10313,-10.864,-10.277
10324,-10.197,-10.12
10336,-9.1955,-11.317
10348,-9.0207,-13.599
10359,-11.339,-13.186
10371,-10.306,-11.813
10383,-8.5146,-11.389
10395,-8.8037,-11.505
10406,-10.783,-11.172
10418,-8.3675,-10.962
10430,-10.284,-11.452
10441,-10.635,-11.898
10453,-8.2845,-12.165
10465,-8.4734,-12.659
10477,-11.171,-14.257
10488,-12.645,-12.639
10500,-9.9234,-12.194
10512,-9.1146,-10.133
10523,-11.4,-10.914
10535,-10.317,-12.14
10547,-9.6305,-10.727
10559,-7.6858,-7.9973
10570,-6.4996,-8.7874
10582,-7.5486,-12.69
10594,-8.4849,-9.8401
10605,-8.7808,-10.492
10617,-12.757,-11.818
10629,-8.1457,-13.959
10641,-8.2465,-11.701
10652,-8.4795,-10.947
10664,-7.5581,-12.977
10676,-8.2442,-13.701
10688,-9.0921,-12.837
10699,-9.2863,-12.848
10711,-8.9273,-12.783
10723,-7.8859,-11.464
10734,-7.4527,-10.294
10746,-7.0168,-9.3695
10758,-6.7795,-9.4621
10770,-8.0285,-8.3487
10781,-6.7214,-8.046
10793,-7.7538,-7.4446
10805,-7.9908,-7.4098
10816,-5.3873,-7.2995
10828,-4.0712,-8.6255
10840,-5.3931,-10.143
10852,-6.7828,-11.567
10863,-6.4883,-8.9406
10875,-6.6581,-8.8655
10887,-6.6587,-12.595
10898,-5.9571,-10.416
10910,-6.0844,-11.205
10922,-7.7609,-13.717
10934,-7.1717,-15.654
10945,-6.755,-11.532
10957,-7.2991,-9.1995
10969,-6.2008,-10.515
10980,-5.0536,-12.388
10992,-3.2183,-11.357
11004,-4.7182,-11.458
11016,-4.863,-10.951
11027,-2.5402,-7.6356
11039,-3.8346,-8.9142
11051,-6.4235,-9.6215
11063,-5.6717,-11.362
11074,-2.4595,-9.6306
11086,-2.85,-7.4108
11098,-2.3542,-10.513
11109,-2.8285,-8.5737
11121,-2.3983,-10.362
11133,-2.2185,-10.615
11145,-2.9543,-9.2056
11156,-4.9893,-10.91
11168,-3.7946,-14.161
11180,-4.2217,-14.581
11191,-3.2162,-14.151
11203,-3.547,-11.278
11215,-3.6006,-10.209
11227,-3.1666,-11.646
11238,-2.0937,-13.601
11250,-0.90827,-11.514
11262,-0.29226,-9.385
11273,-0.16853,-8.316
11285,-0.8736,-9.5692
11297,-0.92186,-13.844
11309,0.61432,-12.599
11320,-1.2092,-10.784
11332,-3.0184,-7.5477
11344,-2.9142,-7.8185
11355,-1.3573,-11.696
11367,-1.343,-12.157
11379,-0.4513,-10.717
11391,-0.12092,-11.335
11402,-0.66189,-10.234
11414,-1.5229,-8.8197
11426,-0.84157,-8.2882
11438,-0.87361,-9.143
11449,-2.2607,-11.712
11461,-1.3671,-12.181
11473,-0.13616,-11.338
11484,1.2724,-12.057
11496,-1.8329,-13.242
11508,-2.719,-13.525
11520,0.04276,-11.954
11531,-0.29606,-11.688
11543,-1.1647,-11.385
11555,-1.1178,-8.4935
11566,-0.19548,-6.3008
11578,-1.6604,-8.3793
11590,-3.0302,-6.8722
11602,-1.4095,-9.0758
11613,-1.2026,-10.593
11625,-1.561,-9.5251
11637,-0.82737,-10.308
11648,0.056689,-11.399
11660,-0.2109,-10.487
11672,-1.1115,-10.306
11684,-0.63211,-9.0963
11695,-1.2407,-9.2518
11707,-2.7403,-8.1119
11719,-1.2142,-7.4858
11730,-0.42875,-7.5339
11742,-0.73785,-10.988
11754,-2.5515,-10.086
11766,-2.3855,-12.279
11777,-2.43,-13.058
11789,-3.0418,-8.6921
11801,-0.8711,-7.0362
11813,-0.51949,-10.57
11824,0.017093,-11.1
11836,-2.1186,-11.411
11848,-0.7485,-10.071
11859,-0.006904,-9.0929
11871,-1.7896,-12.433
11883,-2.4336,-13.048
11895,-2.8535,-15.284
11906,-1.1646,-12.024
11918,-0.25779,-10.967
11930,-1.6226,-12.435
11941,-2.2087,-13.301
11953,-0.59825,-12.902
11965,-1.6794,-12.046
11977,-2.4595,-11.662
11988,-2.7144,-9.5273
12000,-2.0914,-8.9823
12012,-1.7667,-13.285
12023,-1.2332,-10.967
12035,-1.2798,-12.275
12047,-0.89538,-11.305
12059,-0.80894,-12.417
12070,-0.34791,-18.831
12082,-0.86069,-11.339
12094,-1.6853,-10.789
12105,-2.6239,-11.188
12117,-3.5749,-12.403
12129,-3.3578,-11.558
12141,-1.9437,-10.383
12152,-1.1097,-11.308
12164,-1.1429,-12.173
12176,-2.3681,-9.279
12188,-2.2254,-12.724
12199,-1.2251,-12.746
12211,-2.0181,-9.7564
12223,-2.9059,-10.401
12234,-3.4952,-13.683
12246,-2.0904,-12.766
12258,-1.3072,-9.2802
12270,-0.90596,-10.539
12281,-0.69454,-11.475
12293,0.31897,-11.317
12305,-1.5067,-11.896
12316,-2.847,-12.643
12328,-0.14153,-8.8316
12340,-0.086258,-7.0399
12352,-0.55867,-6.7177
12363,-1.5167,-9.0634
12375,-1.6513,-10.226
12387,-3.7697,-8.6959
12398,-2.8928,-10.868
12410,-2.0422,-9.7384
12422,-1.0974,-8.5702
12434,-1.8744,-9.606
12445,-2.6486,-8.5932
12457,-3.3718,-10.429
12469,-3.2224,-13.069
12480,-2.5092,-14.517
12492,-0.61464,-13.188
12504,-1.2765,-12.381
12516,-5.3136,-11.864
12527,-5.3535,-12.528
12539,-2.9908,-12.261
12551,-2.5275,-10.354
12563,-2.7786,-13.727
12574,0.82394,-9.4153
12586,0.1914,-7.8525
12598,0.078647,-10.822
12609,-0.65896,-11.574
12621,-0.26047,-12.413
12633,0.10612,-9.5962
12645,-0.60108,-10.289
12656,-2.1492,-12.248
12668,-2.9872,-12.636
12680,-4.5498,-10.634
12691,-7.2091,-14.112
12703,-4.0374,-12.769
12715,-1.5953,-12.271
12727,-2.1331,-13.5
12738,-2.6207,-16.785
12750,-3.105,-14.689
12762,-2.6426,-12.891
12773,-1.1558,-10.15
12785,-2.9235,-11.328
12797,-3.1496,-14.266
12809,-4.3849,-16.207
12820,-5.1079,-12.608
12832,-3.8923,-13.901
12844,-0.81434,-16.331
12855,-1.484,-14.233
12867,-3.1962,-13.879
12879,-3.3088,-13.672
12891,-3.077,-12.748
12902,-4.159,-8.6854
12914,-5.0147,-10.759
12926,-4.8436,-15.212
12938,-2.4713,-14.83
12949,-2.3698,-15.599
12961,-3.9409,-15.546
12973,-3.4049,-12.269
12984,-4.4117,-14.377
12996,-5.5306,-14.307
13008,-5.1797,-14.19
13020,-5.7709,-12.206
13031,-4.0278,-10.98
13043,-2.02,-13.734
13055,-3.3046,-12.627
13066,-4.6771,-11.454
13078,-2.3415,-11.819
13090,-1.8837,-11.527
13102,-4.5926,-12.083
13113,-4.24,-14.345
13125,-2.4059,-13.999
13137,-2.2463,-14.497
13148,-1.5766,-13.388
13160,-4.3081,-13.951
13172,-4.2102,-13.329
13184,-3.7414,-14.625
13195,-4.9147,-12.536
13207,-4.4727,-12.517
13219,-3.7763,-19.126
13230,-5.9828,-18.064
13242,-4.7443,-13.079
13254,-3.6934,-14.511
13266,-2.2931,-15.295
13277,-2.4847,-13.061
13289,-3.16,-11.035
13301,-2.8386,-13.617
13313,-3.747,-15.493
13324,-6.3263,-14.848
13336,-6.0258,-15.689
13348,-5.2367,-12.451
13359,-4.3773,-11.509
13371,-4.9668,-14.369
13383,-4.6452,-15.071
13395,-4.6531,-15.998
13406,-5.8683,-15.393
13418,-6.0498,-15.771
13430,-3.4175,-13.329
13441,-2.4874,-12.335
13453,-4.5567,-14.389
13465,-3.9994,-13.227
13477,-3.7886,-13.54
13488,-3.9879,-13.39
13500,-4.2218,-14.416
13512,-3.5459,-16.828
13523,-4.1336,-13.627
13535,-3.9154,-11.343
13547,-3.6922,-11.496
13559,-5.8975,-13.034
13570,-6.2938,-14.726
13582,-5.5699,-16.962
13594,-4.8756,-14.268
13605,-4.2482,-13.623
13617,-3.137,-13.721
13629,-3.4049,-15.115
13641,-3.2731,-16.002
13652,-4.2281,-15.99
13664,-3.8483,-15.669
13676,-5.7021,-13.465
13688,-8.0226,-13.866
13699,-7.7443,-15.448
13711,-6.6231,-18.359
13723,-4.9368,-17.033
13734,-5.147,-17.769
13746,-5.1245,-16.192
13758,-5.2871,-14.701
13770,-5.6377,-16.635
13781,-6.6092,-15.68
13793,-3.9185,-14.294
13805,-3.5066,-15.972
13816,-4.0954,-17.588
13828,-5.6892,-15.067
13840,-3.0895,-15.217
13852,-4.3581,-16.05
13863,-7.2935,-15.933
13875,-6.6118,-15.002
13887,-5.8642,-14.293
13898,-4.8557,-12.935
13910,-5.5361,-12.198
13922,-5.5061,-13.849
13934,-4.5715,-14.822
13945,-5.408,-16.62
13957,-6.2901,-13.92
13969,-5.6257,-15.46
13980,-6.6007,-17.809
13992,-6.1742,-16.734
14004,-4.8312,-14.209
14016,-5.5845,-10.767
14027,-7.9978,-13.983
14039,-8.1103,-16.286
14051,-8.906,-14.42
14063,-6.5936,-13.961
14074,-5.4482,-16.81
14086,-6.6461,-18.399
14098,-6.2166,-18.203
14109,-6.0345,-16.108
14121,-6.1369,-16.129
14133,-7.0897,-15.074
14145,-7.2646,-15.738
14156,-8.1678,-16.569
14168,-7.1177,-15.625
14180,-5.8305,-14.905
14191,-4.7065,-16.099
14203,-4.6079,-17.47
14215,-4.1324,-16.886
14227,-6.3677,-13.566
14238,-7.4185,-15.608
14250,-8.0528,-16.119
14262,-9.9712,-17.439
14273,-11.44,-18.659
14285,-10.998,-14.864
14297,-9.6857,-16.308
14309,-7.722,-19.468
14320,-7.994,-19.913
14332,-8.4581,-17.401
14344,-8.7747,-14.745
14355,-7.8477,-17.898
14367,-8.7813,-14.213
14379,-9.2182,-17.998
14391,-10.329,-16.084
14402,-10.025,-17.503
14414,-8.5302,-16.067
14426,-8.9477,-14.789
14438,-6.4694,-15.621
14449,-7.1023,-18.269
14461,-6.4216,-17.137
14473,-6.9476,-17.704
14484,-8.4437,-16.891
14496,-8.2013,-15.39
14508,-10.118,-17.238
14520,-9.7466,-18.33
14531,-8.4681,-16.438
14543,-9.8201,-17.35
14555,-8.5277,-18.83
14566,-7.9659,-15.746
14578,-8.8422,-16.054
14590,-8.983,-17.332
14602,-8.7241,-18.801
14613,-8.4668,-20.628
14625,-8.5239,-18.083
14637,-10.951,-15.056
14648,-10.496,-14.17
14660,-8.382,-15.702
14672,-7.7425,-19.357
14684,-8.3659,-18.637
14695,-9.0781,-14.965
14707,-7.1353,-15.447
14719,-6.8546,-19.071
14730,-8.4414,-18.715
14742,-11.083,-18.946
14754,-9.2737,-19.505
14766,-8.5013,-18.843
14777,-7.3879,-16.758
14789,-7.7804,-16.611
14801,-5.8823,-16.416
14813,-5.9569,-19.82
14824,-7.9106,-19.795
14836,-6.3977,-18.428
14848,-6.3396,-17.046
14859,-8.7323,-17.714
14871,-9.8681,-16.46
14883,-10.326,-19.026
14895,-8.1218,-21.039
14906,-6.5086,-21.239
14918,-11.378,-18.583
14930,-11.237,-16.318
14941,-9.4922,-14.71
14953,-8.6055,-15.307
14965,-10.432,-17.685
14977,-10.857,-17.117
14988,-10.733,-16.197
15000,-11.536,-16.826
15012,-12.291,-15.407
15023,-11.248,-16.619
15035,-11.027,-20.695
15047,-9.7994,-18.556
15059,-8.122,-17.421
15070,-6.6663,-17.174
15082,-8.6171,-16.007
15094,-10.254,-17.441
15105,-9.3473,-17.221
15117,-9.2918,-18.212
15129,-11.786,-17.966
15141,-10.275,-17.653
15152,-9.7411,-15.608
15164,-9.4286,-19.766
15176,-10.266,-21.065
15188,-8.2412,-18.629
15199,-9.3699,-19.955
15211,-9.6704,-18.408
15223,-9.7548,-16.774
15234,-9.6628,-18.579
15246,-8.4823,-17.983
15258,-9.0454,-14.728
15270,-7.6881,-14.835
15281,-6.9684,-13.914
15293,-11.699,-14.57
15305,-9.7186,-18.715
15316,-10.791,-21.414
15328,-10.783,-20.034
15340,-10.811,-15.481
15352,-10.28,-16.741
15363,-8.2881,-17.588
15375,-7.6469,-17.856
15387,-6.7267,-16.424
15398,-8.2535,-16.892
15410,-9.0022,-20.134
15422,-10.416,-18.247
15434,-10.924,-20.611
15445,-9.7654,-23.433
15457,-10.85,-19.699
15469,-9.2498,-20.563
15480,-11.394,-19.461
15492,-11.401,-19.374
15504,-9.5091,-21.506
15516,-9.2938,-20.613
15527,-10.897,-20.556
15539,-10.857,-19.623
15551,-11.094,-18.102
15563,-12.289,-18.425
15574,-11.832,-18.67
15586,-10.827,-19.989
15598,-9.6519,-20.467
15609,-13.048,-19.139
15621,-12.884,-19.817
15633,-14.61,-18.222
15645,-13.625,-15.53
15656,-14.256,-18.005
15668,-15.308,-16.505
15680,-13.66,-19.375
15691,-14.037,-21.181
15703,-13.674,-22.816
15715,-12.325,-23.346
15727,-13.08,-20.633
15738,-11.389,-23.422
15750,-12.33,-22.578
15762,-13.645,-20.118
15773,-13.701,-18.702
15785,-12.549,-19.185
15797,-13.844,-18.535
15809,-16.034,-18.425
15820,-16.318,-19.191
15832,-16.098,-20.059
15844,-16.861,-19.566
15855,-13.359,-18.87
15867,-11.487,-20.988
15879,-11.671,-18.738
15891,-9.3745,-18.121
15902,-10.293,-19.444
15914,-14.987,-17.574
15926,-16.113,-18.763
15938,-15.534,-20.493
15949,-14.325,-21.561
15961,-14.901,-20.038
15973,-13.272,-18.731
15984,-14.521,-16.7
15996,-16.889,-17.58
16008,-14.355,-20.331
16020,-13.4,-20.859
16031,-14.924,-17.297
16043,-13.676,-18.888
16055,-14.242,-23.638
16066,-14.041,-19.536
16078,-13.322,-19.649
16090,-13.746,-21.059
16102,-11.23,-19.916
16113,-11.103,-17.713
16125,-13.385,-17.037
16137,-16.635,-17.794
16148,-17.648,-17.763
16160,-17.223,-19.025
16172,-18.767,-21.664
16184,-18.598,-20.636
16195,-15.467,-20.16
16207,-14.735,-22.691
16219,-18.694,-20.294
16230,-18.298,-21.845
16242,-17.332,-17.568
16254,-14.359,-16.03
16266,-15.437,-18.019
16277,-16.039,-20.368
16289,-15.454,-21.292
16301,-15.311,-20.989
16313,-17.417,-20.928
16324,-18.987,-18.638
16336,-17.162,-21.206
16348,-16.401,-19.918
16359,-17.366,-17.992
16371,-15.691,-20.014
16383,-14.002,-20.446
16395,-13.697,-22.387
16406,-14.466,-23.655
16418,-16.233,-21.121
16430,-20.299,-18.571
16441,-15.569,-18.183
16453,-14.981,-18.261
16465,-16.381,-19.709
16477,-15.434,-19.154
16488,-13.44,-19.511
16500,-16.43,-21.829
16512,-16.574,-23.472
16523,-16.495,-24.969
16535,-14.493,-20.099
16547,-13.984,-19.412
16559,-16.726,-18.347
16570,-17.561,-16.289
16582,-19.461,-20.997
16594,-14.79,-21.172
16605,-13.705,-19.852
16617,-17.315,-22.281
16629,-18.634,-22.892
16641,-18.599,-19.238
16652,-19.202,-19.449
16664,-16.174,-21.966
16676,-15.937,-19.473
16688,-14.426,-21.083
16699,-17.932,-17.961
16711,-18.854,-16.785
16723,-17.765,-18.448
16734,-17.919,-20.568
16746,-17.903,-19.65
16758,-17.305,-21.023
16770,-17.446,-22.965
16781,-17.473,-21.662
16793,-16.604,-21.107
16805,-15.934,-21.729
16816,-14.473,-18.244
16828,-16.1,-19.036
16840,-19.681,-20.982
16852,-17.95,-21.044
16863,-18.833,-18.555
16875,-16.793,-21.053
16887,-15.866,-20.374
16898,-16.666,-21.276
16910,-17.599,-20.817
16922,-16.275,-19.979
16934,-17.603,-19.786
16945,-15.709,-21.466
16957,-14.48,-22.076
16969,-16.606,-22.918
16980,-19.051,-20.963
16992,-16.482,-19.94
17004,-16.451,-17.867
17016,-20.075,-19.784
17027,-19.125,-19.776
17039,-19.434,-22.468
17051,-16.614,-20.545
17063,-16.009,-18.023
17074,-18.294,-18.702
17086,-18.705,-20.746
17098,-17.698,-22.166
17109,-20.258,-20.607
17121,-18.536,-22.627
17133,-16.954,-24.72
17145,-15.943,-19.957
17156,-18.888,-19.601
17168,-20.188,-20.16
17180,-20.036,-21.005
17191,-19.7,-22.034
17203,-17.403,-22.111
17215,-16.123,-21.098
17227,-15.595,-21.931
17238,-18.659,-21.117
17250,-14.397,-20.18
17262,-15.402,-20.596
17273,-17.634,-20.143
17285,-18.648,-22.59
17297,-18.969,-21.29
17309,-16.678,-21.276
17320,-17.316,-22.058
17332,-16.114,-21.616
17344,-17.028,-19.625
17355,-16.372,-20.418
17367,-16.622,-23.735
17379,-17.069,-23.19
17391,-15.606,-19.63
17402,-13.918,-19.303
17414,-13.498,-18.392
17426,-17.18,-23.685
17438,-16.759,-22.392
17449,-13.254,-21.093
17461,-15.435,-18.708
17473,-16.088,-18.343
17484,-19.423,-24.295
17496,-18.713,-24.359
17508,-18.951,-24.501
17520,-18.129,-22.741
17531,-16.118,-24.412
17543,-15.741,-18.949
17555,-16.446,-20.268
17566,-14.319,-20.896
17578,-16.57,-21.883
17590,-14.639,-21.543
17602,-17.221,-22.095
17613,-16.848,-26.067
17625,-16.722,-25.398
17637,-18.716,-20.698
17648,-16.961,-20.887
17660,-16.144,-21.725
17672,-17.997,-22.662
17684,-16.671,-24.297
17695,-13.988,-24.226
17707,-15.707,-22.993
17719,-14.139,-21.208
17730,-15.119,-21.257
17742,-18.717,-22.62
17754,-20.845,-24.542
17766,-20.506,-23.267
17777,-17.772,-21.209
17789,-19.448,-22.107
17801,-19.154,-23.567
17813,-17.34,-24.402
17824,-16.04,-24.278
17836,-17.669,-20.267
17848,-15.739,-19.478
17859,-18.356,-20.859
17871,-17.212,-22.342
17883,-17.473,-24.251
17895,-17.909,-23.644
17906,-15.302,-21.818
17918,-14.952,-20.695
17930,-17.266,-19.148
17941,-19.664,-21.648
17953,-18.915,-24.326
17965,-19.803,-22.241
17977,-20.777,-21.841
17988,-20.142,-21.39
18000,-18.725,-19.897
18012,-15.519,-19.774
18023,-14.85,-20.846
18035,-18.437,-22.24
18047,-18.788,-21.718
18059,-21.096,-19.62
18070,-16.707,-20.288
18082,-15.804,-24.754
18094,-16.955,-25.764
18105,-16.382,-24.076
18117,-19.499,-22.103
18129,-19.059,-23.81
18141,-19.079,-23.005
18152,-17.81,-23.852
18164,-19.602,-23.31
18176,-20.572,-23.038
18188,-21.271,-20.657
18199,-21.167,-20.447
18211,-18.099,-22.832
18223,-16.913,-22.437
18234,-17.609,-23.619
18246,-22.716,-23.435
18258,-22.894,-25.541
18270,-21.04,-24.544
18281,-17.338,-22.226
18293,-16.843,-22.869
18305,-21.783,-21.171
18316,-20.864,-21.291
18328,-20.456,-23.33
18340,-21.898,-23.742
18352,-21.92,-22.995
18363,-22.282,-23.334
18375,-20.965,-25.961
18387,-18.41,-23.189
18398,-20.095,-21.849
18410,-21.483,-22.854
18422,-20.55,-23.109
18434,-18.101,-22.934
18445,-15.765,-23.51
18457,-17.107,-24.215
18469,-22.027,-23.516
18480,-21.856,-20.579
18492,-19.574,-20.594
18504,-18.55,-20.845
18516,-19.043,-20.452
18527,-18.98,-21.853
18539,-19.614,-21.655
18551,-20.463,-21.092
18563,-18.759,-21.422
18574,-18.614,-24.107
18586,-17.791,-23.913
18598,-20.015,-25.078
18609,-19.928,-24.819
18621,-21.35,-24.686
18633,-24.694,-26.86
18645,-24.81,-25.457
18656,-21.986,-24.882
18668,-23.124,-23.297
18680,-19.885,-22.413
18691,-20.219,-24.142
18703,-21.259,-23.592
18715,-21.022,-23.946
18727,-21.291,-21.194
18738,-21.91,-22.623
18750,-22.547,-27.94
18762,-22.991,-26.833
18773,-21.48,-22.213
18785,-20.783,-20.842
18797,-19.999,-21.709
18809,-19.818,-23.073
18820,-19.909,-21.811
18832,-21.342,-23.564
18844,-20.742,-26.513
18855,-19.25,-25.029
18867,-19.602,-23.474
18879,-19.314,-22.036
18891,-20.243,-23.836
18902,-21.941,-26.43
18914,-20.3,-25.006
18926,-17.496,-24.561
18938,-17.938,-23.643
18949,-20.49,-22.809
18961,-22.567,-24.496
18973,-20.405,-24.906
18984,-22.325,-26.293
18996,-24.667,-24.746
19008,-23.548,-24.12
19020,-22.313,-24.604
19031,-22.374,-25.751
19043,-24.741,-23.87
19055,-26.3,-23.393
19066,-23.535,-25.003
19078,-22.113,-24.696
19090,-23.817,-23.453
19102,-23.649,-21.841
19113,-21.641,-21.847
19125,-20.336,-23.654
19137,-18.816,-24.627
19148,-20.311,-23.95
19160,-23.26,-24.471
19172,-24.068,-23.342
19184,-22.254,-22.871
19195,-20.358,-21.128
19207,-19.82,-22.234
19219,-20.305,-27.355
19230,-22.567,-23.059
19242,-21.135,-25.037
19254,-24.142,-23.85
19266,-23.885,-24.458
19277,-23.78,-25.757
19289,-20.125,-26.339
19301,-19.46,-25.441
19313,-20.981,-24.89
19324,-21.936,-25.054
19336,-23.731,-23.129
19348,-23.478,-25.657
19359,-19.588,-22.35
19371,-18.732,-22.977
19383,-20.807,-25.671
19395,-20.455,-24.569
19406,-20.815,-23.246
19418,-20.577,-26.428
19430,-21.556,-24.095
19441,-23.469,-26.446
19453,-23.043,-24.819
19465,-24.055,-27.008
19477,-25.7,-25.324
19488,-23.094,-22.009
19500,-22.727,-25.848
19512,-22.77,-29.818
19523,-23.649,-25.86
19535,-23.835,-24.658
19547,-23.491,-24.592
19559,-22.283,-25.22
19570,-21.948,-23.501
19582,-20.526,-26.202
19594,-23.741,-22.591
19605,-26.865,-23.276
19617,-24.073,-22.756
19629,-22.158,-24.553
19641,-23.259,-23.49
19652,-25.831,-24.244
19664,-26.232,-27.005
19676,-24.02,-27.781
19688,-22.043,-23.198
19699,-23.463,-25.501
19711,-25.662,-28.663
19723,-26.238,-24.12
19734,-23.442,-24.113
19746,-22.118,-28.044
19758,-21.44,-26.19
19770,-22.592,-26.673
19781,-20.916,-21.567
19793,-21.449,-22.614
19805,-24.388,-25.319
19816,-24.373,-25.454
19828,-24.773,-26.379
19840,-25.073,-28.149
19852,-22.843,-26.409
19863,-21.179,-25.516
19875,-24.058,-24.784
19887,-24.514,-23.489
19898,-22.281,-25.568
19910,-25.665,-28.476
19922,-25.219,-24.557
19934,-24.64,-26.204
19945,-24.44,-30.972
19957,-24.439,-27.51
19969,-22.128,-22.802
19980,-23.03,-20.996
19992,-24.933,-22.023
20004,-25.289,-22.807
20016,-24.752,-25.865
20027,-23.499,-26.334
20039,-24.016,-24.148
20051,-25.612,-23.86
20063,-24.769,-24.459
20074,-21.542,-24.059
20086,-20.196,-23.574
20098,-24.276,-27.08
20109,-23.859,-29.021
20121,-23.951,-25.094
20133,-24.103,-22.068
20145,-24.889,-23.338
20156,-23.975,-26.552
20168,-24.537,-26.547
20180,-24.858,-26.365
20191,-26.488,-24.59
20203,-28.743,-23.903
20215,-24.763,-22.016
20227,-26.492,-24.707
20238,-21.498,-23.849
20250,-22.727,-24.169
20262,-27.284,-25.865
20273,-24.791,-26.323
20285,-23.023,-28.255
20297,-25.406,-26.721
20309,-24.254,-25.446
20320,-25.161,-26.662
20332,-23.905,-27.513
20344,-25.045,-26.015
20355,-27.074,-26.69
20367,-27.704,-26.593
20379,-26.779,-26.222
20391,-24.892,-27.53
20402,-23.208,-25.248
20414,-25.289,-23.061
20426,-25.243,-23.911
20438,-24.832,-26.612
20449,-20.84,-27.842
20461,-23.052,-28.805
20473,-24.398,-26.55
20484,-22.945,-27.009
20496,-23.066,-27.24
20508,-23.375,-27.41
20520,-21.404,-24.52
20531,-23.872,-24.556
20543,-29.481,-26.049
20555,-25.5,-24.827
20566,-23.853,-24.167
20578,-26.854,-24.753
20590,-25.626,-24.537
20602,-25.818,-24.032
20613,-26.578,-25.057
20625,-27.588,-27.75
20637,-26.461,-29.565
20648,-24.185,-26.133
20660,-24.939,-23.713
20672,-22.276,-24.161
20684,-23.611,-25.389
20695,-28.608,-26.231
20707,-27.055,-26.982
20719,-26.461,-26.063
20730,-26.21,-24.879
20742,-23.473,-28.167
20754,-25.667,-26.663
20766,-25.81,-24.551
20777,-27.53,-25.385
20789,-27.199,-27.077
20801,-23.615,-29.767
20813,-24.878,-28.303
20824,-26.989,-26.16
20836,-25.998,-27.435
20848,-25.872,-27.86
20859,-24.706,-26.082
20871,-22.105,-26.792
20883,-24.264,-28.114
20895,-25.649,-26.384
20906,-25.722,-26.94
20918,-25.048,-27.827
20930,-24.962,-27.841
20941,-25.362,-26.541
20953,-25.876,-26.128
20965,-25.912,-26.698
20977,-27.36,-25.476
20988,-27.955,-25.595
21000,-26.675,-22.709
21012,-23.681,-23.58
21023,-24.083,-25.401
21035,-23.624,-26.664
21047,-26.929,-28.143
21059,-28.328,-27.411
21070,-27.722,-26.133
21082,-23.43,-25.92
21094,-23.578,-24.456
21105,-25.621,-27.577
21117,-27.494,-27.833
21129,-25.578,-28.17
21141,-25.256,-27.885
21152,-23.656,-26.781
21164,-24.363,-27.118
21176,-25.165,-26.269
21188,-26.211,-26.361
21199,-28.942,-27.244
21211,-28.16,-27.871
21223,-25.89,-27.854
21234,-25.899,-24.349
21246,-24.646,-24.29
21258,-25.536,-22.965
21270,-27.144,-23.55
21281,-26.431,-27.349
21293,-25.842,-28.2
21305,-22.995,-26.73
21316,-24.859,-27.017
21328,-28.96,-26.862
21340,-27.252,-29.009
21352,-26.604,-29.62
21363,-27.001,-28.455
21375,-26.169,-29.128
21387,-26.084,-27.875
21398,-26.924,-26.938
21410,-26.519,-26.498
21422,-24.944,-28.548
21434,-27.411,-29.548
21445,-25.777,-24.97
21457,-26.495,-24.533
21469,-26.51,-29.34
21480,-22.616,-24.438
21492,-25.489,-22.074
21504,-29.837,-23.803
21516,-25.231,-24.949
21527,-25.468,-23.385
21539,-26.907,-23.823
21551,-28.664,-23.717
21563,-27.848,-25.697
21574,-24.722,-27.547
21586,-23.114,-28.7
21598,-24.944,-27.159
21609,-25.561,-28.974
21621,-27.485,-25.393
21633,-26.281,-28.809
21645,-23.882,-30.201
21656,-23.35,-28.651
21668,-25.495,-22.899
21680,-28.261,-23.462
21691,-28.601,-26.38
21703,-28.308,-26.658
21715,-28.042,-27.078
21727,-25.273,-27.163
21738,-26.002,-29.654
21750,-26.374,-29.379
21762,-23.545,-27.165
21773,-23.331,-28.604
21785,-21.546,-27.928
21797,-22.141,-24.829
21809,-22.745,-25.39
21820,-26.471,-26.99
21832,-28.118,-26.731
21844,-28.149,-27.229
21855,-27.773,-27.79
21867,-26.663,-27.653
21879,-25.396,-27.324
21891,-26.193,-26.322
21902,-25.905,-26.613
21914,-28.956,-28.704
21926,-27.125,-25.437
21938,-27.815,-24.247
21949,-28.017,-23.83
21961,-28.984,-26.4
21973,-27.651,-29.507
21984,-24.163,-27.895
21996,-28.223,-25.982
22008,-29.063,-27.51
22020,-25.367,-28.9
22031,-25.187,-26.999
22043,-24.44,-28.585
22055,-25.96,-30.411
22066,-28.611,-26.493
22078,-26.396,-27.172
22090,-26.914,-27.318
22102,-28.892,-28.144
22113,-25.682,-30.155
22125,-24.733,-26.684
22137,-25.904,-25.642
22148,-26.906,-27.814
22160,-28.08,-26.004
22172,-27.725,-24.606
22184,-27.857,-25.849
22195,-26.535,-24.71
22207,-23.417,-27.234
22219,-24.102,-30.368
22230,-26.458,-32.679
22242,-28.148,-29.119
22254,-28.675,-30.321
22266,-28.112,-29.173
22277,-27.243,-26.688
22289,-27.26,-28.13
22301,-25.971,-25.597
22313,-26.202,-27.003
22324,-26.781,-29.536
22336,-26.291,-30.291
22348,-25.155,-30.302
22359,-26.77,-29.134
22371,-27.119,-28.737
22383,-24.574,-27.142
22395,-28.995,-25.679
22406,-32.141,-26.655
22418,-30.597,-27.927
22430,-28.997,-27.845
22441,-29.575,-31.185
22453,-28.009,-26.607
22465,-27.499,-27.378
22477,-28.503,-28.482
22488,-31.075,-26.77
22500,-28.874,-26.99
22512,-26.778,-30.124
22523,-26.681,-28.844
22535,-27.58,-29.65
22547,-26.315,-29.607
22559,-27.192,-26.962
22570,-25.257,-26.803
22582,-24.227,-27.822
22594,-26.756,-27.826
22605,-27.473,-26.712
22617,-26.882,-26.891
22629,-28.096,-27.22
22641,-31.036,-29.996
22652,-28.011,-26.669
22664,-27.822,-28.396
22676,-27.81,-28.038
22688,-26.202,-29.607
22699,-28.669,-28.664
22711,-28.062,-26.526
22723,-24.367,-27.976
22734,-24.671,-31.314
22746,-24.278,-28.656
22758,-24.336,-25.806
22770,-27.689,-26.874
22781,-29.671,-27.809
22793,-31.453,-27.46
22805,-30.311,-28.033
22816,-29.159,-28.732
22828,-29.029,-27.678
22840,-29.225,-25.245
22852,-29.665,-23.395
22863,-27.72,-25.97
22875,-27.793,-28.347
22887,-28.191,-31.758
22898,-24.414,-27.644
22910,-26.911,-25.892
22922,-26.973,-31.187
22934,-24.022,-28.334
22945,-28.045,-26.886
22957,-25.86,-26.738
22969,-25.958,-26.699
22980,-30.07,-29.924
22992,-28.798,-25.812
23004,-28.885,-25.708
23016,-27.131,-27.68
23027,-26.415,-26.358
23039,-25.496,-27.833
23051,-25.64,-30.688
23063,-27.543,-29.815
23074,-26.4,-28.913
23086,-28.093,-26.364
23098,-28.138,-25.375
23109,-26.391,-28.314
23121,-25.354,-31.261
23133,-26.588,-30.53
23145,-28.826,-25.927
23156,-28.286,-26.822
23168,-28.69,-30.83
23180,-29.516,-31.369
23191,-31.141,-31.781
23203,-28.213,-28.231
23215,-27.671,-25.817
23227,-31.47,-25.979
23238,-29.514,-26.265
23250,-28.532,-26.595
23262,-28.127,-25.946
23273,-27.988,-27.176
23285,-28.998,-28.914
23297,-28.043,-30.599
23309,-28.002,-31.648
23320,-30.038,-29.144
23332,-28.458,-28.001
23344,-27.79,-30.602
23355,-29.174,-30.281
23367,-28.583,-28.897
23379,-28.633,-27.68
23391,-28.525,-28.472
23402,-29.401,-28.603
23414,-29.166,-29.331
23426,-29.659,-28.685
23438,-32.954,-28.878
23449,-29.439,-30.604
23461,-30.749,-27.889
23473,-30.76,-27.659
23484,-26.691,-28.762
23496,-27.595,-29.769
23508,-24.889,-27.245
23520,-24.017,-28.577
23531,-26.647,-29.813
23543,-27.059,-29.53
23555,-29.12,-29.294
23566,-29.497,-31.622
23578,-28.203,-30.414
23590,-28.548,-30.627
23602,-29.309,-32.31
23613,-26.632,-30.604
23625,-27.766,-29.886
23637,-27.951,-29.706
23648,-27.111,-29.191
23660,-25.37,-27.4
23672,-26.997,-27.603
23684,-29.138,-26.089
23695,-30.183,-26.715
23707,-27.158,-27.407
23719,-25.905,-26.007
23730,-26.119,-26.584
23742,-27.592,-33.765
23754,-27.087,-29.065
23766,-30.236,-28.22
23777,-30.71,-29.342
23789,-27.727,-29.849
23801,-25.366,-27.828
23813,-27.422,-28.09
23824,-31.297,-32.434
23836,-28.016,-27.717
23848,-26.26,-27.974
23859,-28.159,-32.023
23871,-27.846,-33.647
23883,-27.752,-33.286
23895,-28.882,-29.12
23906,-27.689,-26.745
23918,-27.394,-28.53
23930,-26.891,-28.537
23941,-28.748,-28.58
23953,-27.594,-28.8
23965,-27.279,-28.405
23977,-27.587,-29.877
23988,-28.384,-28.904
