FFT,Power Spectrum
Frequency[Hz],Level-L[dB],Level-R[dB]
11.719,-18.295,-20.553
23.438,2.0373,-0.33088
35.156,4.5531,3.12
46.875,8.4374,8.6186
58.594,9.9262,8.6229
70.313,9.6603,5.9661
82.031,9.9487,8.0036
93.75,12.675,10.229
105.47,12.515,8.8245
117.19,7.6436,4.5661
128.91,10.703,10.097
140.63,12.306,11.399
152.34,7.115,7.5475
164.06,6.75,3.2604
175.78,5.9175,2.9893
187.5,8.9979,6.8427
199.22,12.331,7.6247
210.94,8.2032,6.7016
222.66,21.129,8.2944
234.38,22.974,7.2024
246.09,13.098,6.4291
257.81,5.0388,4.9323
269.53,7.1964,6.9505
281.25,6.6353,6.2003
292.97,5.4613,3.9
304.69,5.4058,5.0224
316.41,5.7635,6.1574
328.13,5.3087,3.5098
339.84,5.2211,2.8152
351.56,6.809,3.0764
363.28,8.4587,7.9288
375,11.803,8.7912
386.72,12.393,9.9403
398.44,11.277,11.42
410.16,11.01,9.5662
421.88,7.7965,7.7007
433.59,8.6391,8.9388
445.31,8.2465,9.3858
457.03,9.6299,10.918
468.75,11.125,12.935
480.47,10.962,11.436
492.19,11.047,8.5431
503.91,9.9893,7.9212
515.63,7.9266,7.2533
527.34,9.272,7.3493
539.06,8.8519,4.879
550.78,10.662,9.2946
562.5,10.274,7.9061
574.22,8.0727,8.4209
585.94,5.4607,4.1061
597.66,8.1693,7.4664
609.38,8.1637,5.6388
621.09,8.884,6.1284
632.81,9.8744,5.9232
644.53,8.697,4.3115
656.25,10.766,3.2843
667.97,11.627,6.3726
679.69,10.605,5.5905
691.41,9.928,4.7842
703.13,11.468,8.2537
714.84,10.757,8.2253
726.56,10.16,6.3819
738.28,10.499,6.6645
750,11.568,7.983
761.72,11.2,8.6214
773.44,11.156,8.3169
785.16,10.92,9.1286
796.88,7.5838,8.1555
808.59,8.1367,6.2224
820.31,10.143,9.7783
832.03,10.162,9.9321
843.75,12.126,8.2849
855.47,13.747,11.8
867.19,12.493,11.021
878.91,12.167,10.403
890.63,11.516,9.4041
902.34,8.2541,7.8284
914.06,8.9124,8.2789
925.78,10.841,5.6177
937.5,10.089,3.0984
949.22,9.9768,3.4987
960.94,12.253,5.3701
972.66,11.699,6.2871
984.38,8.8264,5.5149
996.09,10.409,4.402
1007.8,9.6648,6.4754
1019.5,8.9721,7.793
1031.3,4.9383,6.1292
1043,7.8352,4.9617
1054.7,9.8488,4.3264
1066.4,9.2631,2.3219
1078.1,8.527,4.2921
1089.8,8.8615,4.451
1101.6,9.9466,3.6761
1113.3,8.8311,3.6938
1125,9.4373,6.2706
1136.7,9.2923,8.3112
1148.4,10.038,6.2952
1160.2,7.6989,4.3707
1171.9,6.9823,4.3649
1183.6,10.362,7.2578
1195.3,11.274,9.593
1207,8.2938,7.1047
1218.8,7.8434,7.1219
1230.5,9.0463,6.6735
1242.2,8.1724,6.6936
1253.9,8.1362,7.3725
1265.6,9.8211,6.8155
1277.3,8.8354,3.215
1289.1,7.0731,5.0641
1300.8,5.4367,7.9412
1312.5,5.3383,6.8247
1324.2,7.2608,5.723
1335.9,8.6843,6.93
1347.7,9.6556,6.0144
1359.4,8.5989,3.7711
1371.1,6.4448,4.1343
1382.8,7.2634,3.9768
1394.5,7.5738,5.0438
1406.3,8.197,6.6322
1418,8.3684,8.8803
1429.7,8.9639,2.8557
1441.4,9.408,2.7099
1453.1,8.4728,0.66281
1464.8,7.7295,4.4263
1476.6,8.1135,6.3357
1488.3,9.8963,5.5131
1500,11.303,5.9791
1511.7,10.518,6.1412
1523.4,8.4327,4.3704
1535.2,10.238,5.5529
1546.9,9.5139,3.8604
1558.6,8.6316,4.3039
1570.3,8.6288,4.6108
1582,6.6564,7.0891
1593.8,5.5346,6.4867
1605.5,5.59,4.0269
1617.2,5.4153,0.56381
1628.9,7.1358,3.0754
1640.6,8.6234,3.8029
1652.3,8.1611,6.9169
1664.1,5.9507,2.6711
1675.8,5.5438,-1.505
1687.5,7.3188,1.8041
1699.2,6.6857,3.5221
1710.9,6.7326,2.6936
1722.7,8.1695,1.8708
1734.4,9.8468,4.0454
1746.1,8.9146,6.248
1757.8,5.9804,4.7257
1769.5,6.9159,1.3427
1781.3,8.2351,2.1365
1793,5.0185,1.6635
1804.7,8.2158,1.5034
1816.4,9.3758,0.76671
1828.1,6.478,4.7955
1839.8,7.0512,4.2486
1851.6,5.081,0.27815
1863.3,5.3161,1.8215
1875,7.063,2.7649
1886.7,4.4653,0.17544
1898.4,6.8276,3.1214
1910.2,8.9404,3.6664
1921.9,8.5843,5.8182
1933.6,9.7659,8.2522
1945.3,8.786,6.9294
1957,6.7793,4.8866
1968.8,7.0065,3.3626
1980.5,8.1943,3.9358
1992.2,9.4084,6.5209
2003.9,8.6858,4.8995
2015.6,3.4703,3.0137
2027.3,3.9391,3.6007
2039.1,5.2794,2.0116
2050.8,6.6941,1.9619
2062.5,6.0526,6.6172
2074.2,7.8261,6.2842
2085.9,9.9861,2.8194
2097.7,6.3834,0.58536
2109.4,6.5533,4.2611
2121.1,4.575,5.4223
2132.8,4.7938,4.3887
2144.5,5.8285,3.8298
2156.3,3.1529,3.6915
2168,5.2685,4.2281
2179.7,6.059,2.9573
2191.4,5.5079,4.4418
2203.1,6.3755,3.3429
2214.8,6.5629,1.6669
2226.6,8.3371,0.72128
2238.3,8.6368,0.45108
2250,6.7459,4.3529
2261.7,6.4478,6.3664
2273.4,6.4373,4.7399
2285.2,4.7851,1.0245
2296.9,6.0278,3.7317
2308.6,6.6912,4.804
2320.3,8.0239,4.8276
2332,8.3107,4.2575
2343.8,8.5033,2.2793
2355.5,5.7222,-1.5815
2367.2,4.2685,-0.67427
2378.9,7.163,5.1739
2390.6,7.4297,2.5049
2402.3,8.3824,3.5969
2414.1,8.4989,4.3879
2425.8,7.1301,3.3504
2437.5,7.6281,4.397
2449.2,6.469,1.8831
2460.9,7.584,-2.2241
2472.7,7.1919,0.97622
2484.4,7.1854,1.636
2496.1,6.2035,1.9004
2507.8,7.6216,1.2948
2519.5,7.9836,2.1116
2531.3,7.6241,3.8187
2543,7.1727,1.3442
2554.7,7.8918,2.0407
2566.4,8.6208,1.8925
2578.1,8.1521,3.9031
2589.8,7.1101,5.7284
2601.6,7.5843,7.4347
2613.3,5.1084,5.8983
2625,6.1637,4.3685
2636.7,7.3642,3.7595
2648.4,5.6477,4.015
2660.2,4.1195,3.4459
2671.9,6.9168,3.2348
2683.6,8.0086,4.2703
2695.3,9.3003,4.3443
2707,9.3702,3.4319
2718.8,9.7912,1.8793
2730.5,7.572,-0.76833
2742.2,4,1.5268
2753.9,3.3556,5.2519
2765.6,4.4968,7.1123
2777.3,5.2479,6.8372
2789.1,5.4155,6.0346
2800.8,3.4645,5.9315
2812.5,1.807,3.6271
2824.2,5.4335,-0.81395
2835.9,4.9593,-1.4708
2847.7,5.7692,-1.5762
2859.4,5.5006,-0.86139
2871.1,5.1429,-0.28788
2882.8,5.6726,-2.7271
2894.5,4.159,-4.2465
2906.3,4.2801,-1.2469
2918,6.0079,-0.2841
2929.7,6.6626,0.40375
2941.4,5.821,2.6721
2953.1,0.84948,0.058425
2964.8,4.5898,-3.5583
2976.6,5.1476,-3.3456
2988.3,6.4218,-3.1015
3000,4.6117,0.68273
3011.7,0.73361,-0.37697
3023.4,3.0923,0.41816
3035.2,3.4264,1.8636
3046.9,3.3028,2.7708
3058.6,4.6335,1.3095
3070.3,4.2628,-2.0104
3082,0.59868,-2.0374
3093.8,-0.34622,1.1718
3105.5,1.8481,0.57511
3117.2,2.8848,-0.79833
3128.9,2.5425,0.79014
3140.6,1.1488,-0.35751
3152.3,3.1795,-1.2321
3164.1,4.6071,0.68906
3175.8,3.2708,0.53763
3187.5,2.614,0.4903
3199.2,3.3368,2.5681
3210.9,2.5616,3.0204
3222.7,1.9696,2.4706
3234.4,-0.85661,-0.75977
3246.1,0.8833,-3.3002
3257.8,3.0406,-0.22302
3269.5,4.0564,1.8225
3281.3,1.2794,0.61786
3293,1.0452,-0.43892
3304.7,0.13771,-1.3933
3316.4,1.1481,0.78447
3328.1,1.7612,-0.096066
3339.8,-1.1599,0.49948
3351.6,0.32227,0.34181
3363.3,0.63056,-2.5659
3375,1.4559,-1.7581
3386.7,0.7884,-0.7228
3398.4,2.6694,2.159
3410.2,2.5514,-2.5189
3421.9,1.1093,0.68046
3433.6,-0.44239,0.43156
3445.3,1.3403,0.14814
3457,0.21445,0.86139
3468.8,-0.95053,0.010381
3480.5,1.4034,-1.327
3492.2,0.77162,-2.2413
3503.9,-2.8316,-1.7334
3515.6,1.2297,-0.7941
3527.3,2.5157,-1.2734
3539.1,0.60846,-1.0333
3550.8,1.331,-1.8872
3562.5,1.8317,-2.747
3574.2,-0.85051,0.071213
3585.9,-1.1269,-0.261
3597.7,0.19259,-1.3968
3609.4,-1.0913,-2.0996
3621.1,0.48992,-0.9721
3632.8,2.5124,3.6028
3644.5,0.74625,2.3144
3656.3,-1.4076,1.9236
3668,0.32948,3.1952
3679.7,-1.0878,2.4861
3691.4,-0.64251,-2.9179
3703.1,1.5451,1.1545
3714.8,0.59287,1.123
3726.6,1.3469,-2.6351
3738.3,2.4297,-0.38708
3750,2.423,0.15849
3761.7,0.13935,-3.6715
3773.4,1.9718,-3.5409
3785.2,3.1635,-1.8099
3796.9,2.8306,-1.1468
3808.6,3.3429,-2.6253
3820.3,3.4324,-2.8072
3832,2.5623,-2.1678
3843.8,2.9541,-2.5618
3855.5,0.69288,-0.86143
3867.2,-2.0578,0.33386
3878.9,-0.33744,-1.3738
3890.6,0.44774,-1.2603
3902.3,-0.34061,-0.81275
3914.1,-0.082065,-2.4762
3925.8,1.1866,-1.0848
3937.5,2.5823,-2.582
3949.2,2.6107,-0.65473
3960.9,2.2504,-1.4563
3972.7,0.76478,1.1699
3984.4,2.3079,-0.22743
3996.1,1.3239,-1.3377
4007.8,3.8459,-1.5222
4019.5,1.7107,-0.69006
4031.3,0.21101,-1.7705
4043,-0.41728,-0.6026
4054.7,-0.79909,1.0762
4066.4,0.7419,-0.89695
4078.1,1.4957,-2.0831
4089.8,-0.60903,-3.6895
4101.6,-3.8816,-4.1964
4113.3,-1.1203,-4.4265
4125,0.76683,-5.3615
4136.7,-0.55541,-2.3374
4148.4,-1.2896,-0.14045
4160.2,-2.1688,-0.76795
4171.9,-1.4824,-3.0255
4183.6,-1.3307,-2.9136
4195.3,-0.1961,-3.1304
4207,-1.9628,-4.1051
4218.8,-7.063,-2.9029
4230.5,-2.398,-0.71936
4242.2,-1.3722,-1.0978
4253.9,-2.234,-2.4522
4265.6,-1.6274,-2.229
4277.3,-1.2628,-1.3701
4289.1,-2.4363,-0.75849
4300.8,-2.8307,-0.80027
4312.5,-3.1448,-4.9117
4324.2,-1.931,-2.0227
4335.9,-2.221,-1.1261
4347.7,-1.8967,-1.522
4359.4,-3.8818,-1.4292
4371.1,-0.10868,-3.5134
4382.8,-0.48069,-2.1409
4394.5,-1.7469,-0.61548
4406.3,-1.9311,-0.33228
4418,-2.5489,-3.3638
4429.7,-2.6487,-3.1462
4441.4,-3.2051,-6.3941
4453.1,-4.944,-3.5513
4464.8,-3.5542,-2.8825
4476.6,-1.8939,-2.2893
4488.3,-1.5293,0.19395
4500,-1.4022,0.6549
4511.7,-2.8483,-2.1134
4523.4,-2.3262,-2.9825
4535.2,-0.96929,-2.1437
4546.9,-0.30531,-4.0757
4558.6,1.3357,-2.3296
4570.3,0.50107,-2.6153
4582,-0.51423,-1.6418
4593.8,0.63607,-2.6034
4605.5,0.030473,-4.8924
4617.2,-4.4267,-6.1769
4628.9,-2.6755,-6.0394
4640.6,-2.0397,-5.6782
4652.3,-2.1037,-2.7474
4664.1,-1.0025,-1.1356
4675.8,-3.4934,-2.38
4687.5,-3.4562,-1.7215
4699.2,-4.2874,-3.7034
4710.9,-5.3591,-4.0698
4722.7,-3.9973,-3.5265
4734.4,-4.0254,-3.9542
4746.1,-2.9132,-5.6613
4757.8,-3.6784,-6.0202
4769.5,-3.3492,-4.8121
4781.3,-1.5546,-3
4793,-3.5757,-4.9994
4804.7,-2.8213,-2.933
4816.4,-3.0855,-1.6262
4828.1,-2.4546,-1.5031
4839.8,-2.121,-3.9854
4851.6,-6.1176,-4.2886
4863.3,-3.8777,-6.2062
4875,-2.3655,-4.3255
4886.7,-2.7592,-2.5865
4898.4,-3.5751,-2.8426
4910.2,-2.2472,-5.9558
4921.9,-1.8911,-5.0642
4933.6,-4.6108,-6.3293
4945.3,-7.043,-6.2946
4957,-5.5476,-2.9767
4968.8,-5.8332,-2.9344
4980.5,-5.9009,-2.7091
4992.2,-5.0119,-3.6469
5003.9,-3.3866,-5.8644
5015.6,-5.9706,-6.3936
5027.3,-3.8128,-3.8252
5039.1,-0.8238,-4.395
5050.8,-1.02,-6.7021
5062.5,-1.8267,-3.6657
5074.2,-2.4581,-3.6838
5085.9,-2.7163,-6.0105
5097.7,-1.1849,-5.1081
5109.4,-1.7254,-3.6363
5121.1,-1.5225,-5.0423
5132.8,-0.39916,-3.4383
5144.5,-1.5258,-1.7778
5156.3,-2.2647,-2.9836
5168,-4.0457,-3.5047
5179.7,-5.3677,-4.0352
5191.4,-1.5999,-4.0888
5203.1,-1.8804,-2.7725
5214.8,-4.1465,-3.1475
5226.6,-4.1988,-4.3597
5238.3,-2.5127,-4.1257
5250,-4.9678,-1.9447
5261.7,-6.5815,-5.9741
5273.4,-6.0794,-6.1658
5285.2,-2.4675,-5.481
5296.9,-1.8273,-5.4911
5308.6,-2.9921,-7.4093
5320.3,-3.1296,-5.1944
5332,-1.5902,-6.1943
5343.8,-0.12493,-5.2582
5355.5,-0.69628,-5.8388
5367.2,-2.1411,-1.2723
5378.9,-2.9875,-5.3806
5390.6,-3.1183,-5.1151
5402.3,-1.8869,-3.0369
5414.1,-2.364,-5.0709
5425.8,-3.3425,-6.3916
5437.5,-3.7073,-8.0533
5449.2,-4.6828,-6.5371
5460.9,-5.374,-3.5415
5472.7,-2.7304,-3.723
5484.4,-3.2393,-4.9032
5496.1,-3.9381,-6.1697
5507.8,-4.2715,-3.4403
5519.5,-5.244,-3.883
5531.3,-7.833,-6.2034
5543,-2.792,-6.5534
5554.7,-0.57551,-1.2469
5566.4,-0.50431,-1.4549
5578.1,-3.4059,-2.6796
5589.8,-6.4576,-4.0936
5601.6,-7.7138,-3.8478
5613.3,-4.8063,-4.2022
5625,-2.9358,-4.9715
5636.7,-2.6003,-6.033
5648.4,-1.5777,-6.423
5660.2,-4.1744,-6.1926
5671.9,-4.7386,-7.4985
5683.6,-6.8687,-5.5026
5695.3,-7.3363,-6.1684
5707,-7.271,-3.0496
5718.8,-3.002,-5.2287
5730.5,-3.8655,-6.1688
5742.2,-4.3883,-8.7609
5753.9,-3.6525,-5.5733
5765.6,-3.2911,-4.9379
5777.3,-3.9893,-7.5376
5789.1,-5.6048,-3.8541
5800.8,-4.8345,-6.334
5812.5,-4.6165,-7.1163
5824.2,-7.0687,-4.2012
5835.9,-6.0405,-5.1498
5847.7,-4.351,-7.3937
5859.4,-5.4573,-4.6777
5871.1,-5.8312,-5.5675
5882.8,-4.3186,-6.3671
5894.5,-4.3008,-3.6448
5906.3,-4.5849,-1.9798
5918,-7.5112,-4.1856
5929.7,-6.3023,-6.6651
5941.4,-5.8187,-9.207
5953.1,-6.427,-10.801
5964.8,-3.7598,-8.7535
5976.6,-7.4663,-5.4146
5988.3,-5.0257,-2.0363
6000,-5.4168,-2.4305
6011.7,-4.0574,-6.7181
6023.4,-1.4847,-5.4334
6035.2,-3.2668,-9.6543
6046.9,-5.6981,-7.9208
6058.6,-5.1249,-8.0072
6070.3,-5.1387,-9.7912
6082,-5.6765,-10.162
6093.8,-3.2844,-6.9435
6105.5,-4.2585,-5.5988
6117.2,-5.738,-7.1497
6128.9,-5.1168,-5.8485
6140.6,-4.9757,-5.5993
6152.3,-4.0008,-6.5199
6164.1,-4.5408,-2.2126
6175.8,-5.1967,-3.2461
6187.5,-4.0335,-7.7215
6199.2,-3.2641,-7.1423
6210.9,-6.062,-5.1971
6222.7,-4.7907,-6.6133
6234.4,-6.0707,-6.1777
6246.1,-6.4216,-6.1883
6257.8,-9.228,-6.1788
6269.5,-3.9959,-4.5124
6281.3,-2.6985,-3.8895
6293,-3.8824,-3.9359
6304.7,-3.7667,-4.1586
6316.4,-3.6738,-5.182
6328.1,-7.0243,-6.0168
6339.8,-6.3155,-6.5477
6351.6,-5.9734,-5.8328
6363.3,-6.5287,-5.6227
6375,-6.814,-9.288
6386.7,-6.1564,-5.184
6398.4,-8.439,-6.0903
6410.2,-8.686,-7.4597
6421.9,-8.8859,-10.126
6433.6,-10.601,-7.4796
6445.3,-7.3479,-8.8803
6457,-9.8377,-3.7478
6468.8,-6.1712,-3.0968
6480.5,-4.3228,-3.7823
6492.2,-4.4196,-6.3134
6503.9,-5.2462,-5.6754
6515.6,-5.7934,-6.2065
6527.3,-6,-6.3939
6539.1,-7.8406,-6.9457
6550.8,-6.2387,-7.69
6562.5,-6.5395,-10.171
6574.2,-4.3904,-10.659
6585.9,-3.4731,-8.7426
6597.7,-4.6833,-6.8493
6609.4,-6.3585,-5.4685
6621.1,-7.4808,-7.347
6632.8,-4.8246,-8.0723
6644.5,-4.2199,-4.4825
6656.3,-7.2381,-4.6903
6668,-7.3139,-7.04
6679.7,-7.9094,-7.8778
6691.4,-7.8371,-3.6926
6703.1,-6.6577,-4.3501
6714.8,-6.5728,-9.2552
6726.6,-6.0813,-5.2609
6738.3,-4.7981,-6.0818
6750,-6.5141,-5.7349
6761.7,-6.8477,-6.4089
6773.4,-6.5088,-9.2355
6785.2,-4.8644,-7.8194
6796.9,-4.1587,-7.6147
6808.6,-4.923,-9.1782
6820.3,-8.9176,-8.5912
6832,-4.8954,-6.3841
6843.8,-4.3389,-7.9123
6855.5,-4.7789,-7.5718
6867.2,-6.4401,-6.8405
6878.9,-7.119,-10.382
6890.6,-7.1498,-10.899
6902.3,-6.5593,-8.1912
6914.1,-5.0349,-7.3481
6925.8,-7.4638,-9.6493
6937.5,-10.613,-9.2655
6949.2,-8.2962,-8.6785
6960.9,-6.3246,-6.4155
6972.7,-7.713,-5.5104
6984.4,-9.2074,-5.943
6996.1,-7.7623,-8.0712
7007.8,-4.7258,-11.493
7019.5,-3.1241,-7.6808
7031.3,-6.2219,-5.4855
7043,-6.4766,-6.2589
7054.7,-4.7663,-13.229
7066.4,-7.6437,-6.6843
7078.1,-4.5442,-8.7755
7089.8,-4.8617,-6.1163
7101.6,-7.2465,-4.3486
7113.3,-4.8269,-3.0771
7125,-4.2448,-3.8988
7136.7,-5.1718,-6.7545
7148.4,-6.319,-7.0969
7160.2,-5.714,-5.6494
7171.9,-6.5808,-5.4441
7183.6,-5.7527,-7.3796
7195.3,-3.8881,-7.3225
7207,-4.8276,-7.9731
7218.8,-6.4719,-9.9318
7230.5,-2.8402,-4.9152
7242.2,-4.0294,-3.6123
7253.9,-4.4027,-7.128
7265.6,-4.2826,-5.7333
7277.3,-3.0426,-8.7505
7289.1,-5.6632,-9.4459
7300.8,-7.4528,-7.2749
7312.5,-8.2837,-6.4703
7324.2,-6.9869,-8.1912
7335.9,-5.546,-9.5198
7347.7,-5.4006,-9.5201
7359.4,-10.611,-7.73
7371.1,-9.2752,-6.069
7382.8,-7.687,-6.3557
7394.5,-5.8175,-9.3237
7406.3,-7.5971,-6.6014
7418,-5.3352,-6.2346
7429.7,-8.3203,-7.4436
7441.4,-7.5219,-6.9643
7453.1,-8.5705,-5.0964
7464.8,-8.5517,-7.222
7476.6,-6.8683,-8.6739
7488.3,-7.4493,-5.8197
7500,-7.5614,-7.9157
7511.7,-7.0532,-6.8901
7523.4,-7.2296,-6.057
7535.2,-7.523,-6.9038
7546.9,-6.7591,-8.8921
7558.6,-7.3606,-10.059
7570.3,-5.8127,-11.784
7582,-5.7893,-8.5607
7593.8,-9.6056,-7.9794
7605.5,-6.8995,-9.3973
7617.2,-6.9201,-10.058
7628.9,-8.1066,-8.3781
7640.6,-5.8102,-7.7763
7652.3,-5.0935,-10.452
7664.1,-7.8628,-12.815
7675.8,-9.5901,-10.217
7687.5,-7.5608,-9.3398
7699.2,-6.8688,-10.966
7710.9,-8.0474,-7.8511
7722.7,-8.1026,-9.7268
7734.4,-8.7459,-9.5205
7746.1,-11.886,-6.7681
7757.8,-10.98,-7.8422
7769.5,-8.897,-9.4229
7781.3,-5.6836,-7.517
7793,-5.5213,-6.0161
7804.7,-4.5952,-6.2297
7816.4,-8.4309,-7.9846
7828.1,-8.6691,-6.5286
7839.8,-7.3984,-6.0792
7851.6,-7.349,-8.2815
7863.3,-7.4984,-10.741
7875,-9.2931,-8.2401
7886.7,-10.533,-6.1454
7898.4,-8.7153,-6.1623
7910.2,-7.7589,-9.5524
7921.9,-9.3282,-9.2725
7933.6,-10.943,-9.2855
7945.3,-11.104,-11.724
7957,-9.5125,-9.2902
7968.8,-9.1592,-9.2008
7980.5,-10.403,-8.8498
7992.2,-7.7479,-8.1786
8003.9,-8.9204,-7.5964
8015.6,-11.515,-10.661
8027.3,-10.086,-9.3052
8039.1,-9.0078,-8.9359
8050.8,-9.9987,-8.697
8062.5,-10.692,-12.116
8074.2,-9.92,-9.9422
8085.9,-11.592,-8.0538
8097.7,-10.11,-7.7983
8109.4,-7.6414,-9.235
8121.1,-5.5534,-10.031
8132.8,-5.6283,-9.5345
8144.5,-7.7024,-11.132
8156.3,-7.1712,-10.62
8168,-9.0147,-11.996
8179.7,-10.08,-10.156
8191.4,-7.3376,-8.4705
8203.1,-5.4594,-6.5187
8214.8,-8.416,-6.65
8226.6,-9.7496,-8.4088
8238.3,-11.111,-10.877
8250,-9.6274,-10.636
8261.7,-8.1461,-10.033
8273.4,-5.6045,-9.0142
8285.2,-7.1294,-9.7359
8296.9,-9.541,-9.2086
8308.6,-9.9466,-10.511
8320.3,-10.949,-12.078
8332,-11.048,-9.6104
8343.8,-8.1373,-8.5894
8355.5,-7.9524,-8.0189
8367.2,-9.9764,-8.3026
8378.9,-8.0052,-10.189
8390.6,-7.7503,-10.939
8402.3,-9.7447,-11.07
8414.1,-12.161,-10.879
8425.8,-10.245,-7.2791
8437.5,-7.7821,-8.8462
8449.2,-8.8805,-10.674
8460.9,-11.297,-9.8512
8472.7,-13.907,-9.6942
8484.4,-9.5929,-11.089
8496.1,-9.775,-9.2836
8507.8,-10.019,-9.4108
8519.5,-10.295,-9.9516
8531.3,-8.0295,-8.5612
8543,-8.8646,-9.4872
8554.7,-9.8909,-11.054
8566.4,-10.042,-9.4176
8578.1,-8.1572,-12.647
8589.8,-7.1264,-11.073
8601.6,-8.4563,-9.3288
8613.3,-9.8494,-8.6513
8625,-9.2426,-10.566
8636.7,-9.9582,-8.7726
8648.4,-7.3722,-6.6154
8660.2,-7.1603,-7.1396
8671.9,-11.042,-9.3477
8683.6,-11.89,-12.107
8695.3,-13.309,-9.1934
8707,-10.055,-10.946
8718.8,-7.6711,-10.769
8730.5,-8.2664,-11.031
8742.2,-8.19,-12.227
8753.9,-7.3035,-11.881
8765.6,-7.3052,-9.8995
8777.3,-10.21,-9.974
8789.1,-9.7867,-10.267
8800.8,-10.706,-10.75
8812.5,-9.1912,-12.31
8824.2,-10.671,-11.178
8835.9,-12.058,-11.026
8847.7,-10.388,-11.234
8859.4,-11.366,-9.8548
8871.1,-10.445,-10.365
8882.8,-12.061,-12.094
8894.5,-7.309,-12.142
8906.3,-7.3904,-11.315
8918,-7.9844,-12.089
8929.7,-10.527,-10.348
8941.4,-9.9304,-8.7743
8953.1,-9.3968,-10.246
8964.8,-10.974,-11.007
8976.6,-11.12,-10.778
8988.3,-10.425,-10.189
9000,-9.558,-13.461
9011.7,-8.8658,-15.855
9023.4,-7.3647,-7.4097
9035.2,-7.676,-6.3271
9046.9,-8.2348,-8.7888
9058.6,-10.635,-12.285
9070.3,-11.045,-10.874
9082,-8.7248,-8.8385
9093.8,-9.4562,-11.297
9105.5,-10.432,-9.2181
9117.2,-9.2707,-7.2238
9128.9,-11.48,-8.334
9140.6,-10.656,-9.2936
9152.3,-13.251,-9.5817
9164.1,-10.843,-6.8929
9175.8,-7.576,-9.3258
9187.5,-8.5599,-13.022
9199.2,-13.224,-11.578
9210.9,-14.343,-9.2687
9222.7,-15.691,-9.4606
9234.4,-11.417,-14.036
9246.1,-10.656,-11.171
9257.8,-13.159,-11.417
9269.5,-12.154,-12.5
9281.3,-13.827,-9.1779
9293,-12.36,-9.9878
9304.7,-11.328,-8.5006
9316.4,-9.6594,-8.937
9328.1,-8.8155,-8.6334
9339.8,-12.447,-8.725
9351.6,-11.545,-10.612
9363.3,-9.5596,-13.527
9375,-9.7106,-11.25
9386.7,-10.017,-10.747
9398.4,-10.601,-10.202
9410.2,-9.3659,-10.196
9421.9,-8.8916,-10.092
9433.6,-11.656,-10.655
9445.3,-11.475,-10.604
9457,-10.251,-12.106
9468.8,-10.512,-13.676
9480.5,-10.535,-11.423
9492.2,-10.936,-10.53
9503.9,-12.47,-11.705
9515.6,-13.528,-11.104
9527.3,-12.545,-11.529
9539.1,-12.506,-13.002
9550.8,-12.729,-12.676
9562.5,-13.93,-10.106
9574.2,-14.096,-12.577
9585.9,-13.227,-6.1656
9597.7,-8.9485,-10.525
9609.4,-7.1022,-9.6177
9621.1,-12.35,-11.789
9632.8,-13.716,-11.109
9644.5,-15.074,-13.025
9656.3,-13.438,-9.1144
9668,-11.929,-7.4832
9679.7,-13.199,-10.166
9691.4,-10.541,-10.616
9703.1,-10.096,-11.464
9714.8,-11.234,-9.9627
9726.6,-13.338,-11.012
9738.3,-13.678,-11.713
9750,-12.015,-11.063
9761.7,-13.253,-11.768
9773.4,-13.127,-11.696
9785.2,-12.149,-13.438
9796.9,-12.039,-11.822
9808.6,-13.228,-10.54
9820.3,-11.96,-9.476
9832,-10.028,-8.5934
9843.8,-9.2774,-8.889
9855.5,-9.3505,-8.6165
9867.2,-10.714,-10.089
9878.9,-10.864,-10.301
9890.6,-8.4095,-10.445
9902.3,-9.8861,-12.499
9914.1,-11.624,-13.378
9925.8,-10.097,-9.5549
9937.5,-12.743,-11.565
9949.2,-9.9147,-14.65
9960.9,-8.5714,-11.298
9972.7,-9.2845,-11.684
9984.4,-8.7706,-9.2693
9996.1,-9.57,-10.305
10008,-12.329,-12.713
10020,-13.315,-12.806
10031,-13.336,-11.48
10043,-9.6474,-10.797
10055,-9.5704,-11.386
10066,-10.564,-14.67
10078,-9.3996,-13.493
10090,-9.1293,-12.315
10102,-11.624,-9.8415
10113,-11.086,-9.1314
10125,-12.207,-11.025
10137,-14.838,-11.113
10148,-13.592,-10.324
10160,-12.75,-11.46
10172,-12.371,-13.123
10184,-11.84,-11.629
10195,-11.638,-12.345
10207,-8.7987,-10.411
10219,-9.227,-13.948
10230,-11.508,-12.076
10242,-9.9542,-11.739
10254,-11.288,-16.412
10266,-12.483,-14.164
10277,-11.418,-11.846
10289,-11.209,-9.762
10301,-11.343,-10.587
10313,-8.9368,-14.439
10324,-8.5281,-12.24
10336,-11.492,-13.707
10348,-11.717,-15.211
10359,-9.4966,-11.611
10371,-8.7528,-10.059
10383,-8.9683,-11.512
10395,-12.278,-11.809
10406,-11.08,-14.715
10418,-7.4753,-13.158
10430,-7.5816,-11.668
10441,-10.144,-11.615
10453,-11.973,-11.533
10465,-10.817,-10.74
10477,-9.659,-13.288
10488,-11.336,-14.902
10500,-13.42,-13.721
10512,-12.219,-13.337
10523,-13.394,-14.102
10535,-12.542,-12.316
10547,-12.959,-9.828
10559,-12.753,-10.899
10570,-11.145,-13.766
10582,-10.599,-12.305
10594,-11.092,-11.277
10605,-11.187,-11.38
10617,-10.67,-12.662
10629,-9.2425,-13.559
10641,-9.978,-11.49
10652,-10.052,-10.428
10664,-8.2391,-10.281
10676,-8.4046,-11.47
10688,-8.7768,-12.763
10699,-10.438,-9.4006
10711,-9.6678,-11.613
10723,-8.952,-12.065
10734,-8.4727,-11.003
10746,-8.9863,-15.09
10758,-12.14,-14.087
10770,-11.459,-11.031
10781,-8.2896,-9.9986
10793,-9.0168,-12.494
10805,-9.5161,-17.024
10816,-9.0987,-13.308
10828,-8.2797,-10.599
10840,-9.3942,-10.107
10852,-8.3247,-12.037
10863,-7.7329,-11.311
10875,-8.5018,-15.75
10887,-7.8186,-12.2
10898,-7.5304,-12.888
10910,-7.6027,-9.9626
10922,-8.1241,-10.155
10934,-8.4425,-11.841
10945,-7.3595,-12.47
10957,-7.1321,-13.023
10969,-6.9394,-12.413
10980,-7.2593,-9.3751
10992,-5.1265,-9.2995
11004,-4.3832,-11.437
11016,-5.1069,-11.402
11027,-7.8677,-10.962
11039,-7.2674,-11.31
11051,-7.7416,-10.674
11063,-6.2587,-12.567
11074,-6.0235,-12.452
11086,-7.813,-13.769
11098,-5.2116,-9.6607
11109,-6.2357,-8.5199
11121,-5.2278,-9.628
11133,-4.2112,-8.0104
11145,-2.5277,-9.3808
11156,-2.1533,-11.478
11168,-3.182,-10.762
11180,-6.0572,-11.006
11191,-6.2168,-11.715
11203,-6.2192,-10.693
11215,-5.4608,-12.297
11227,-4.3699,-12.393
11238,-3.4557,-12.009
11250,-3.7941,-10.457
11262,-4.0056,-9.6363
11273,-4.8339,-10.77
11285,-2.4007,-7.6726
11297,-1.5595,-7.9029
11309,-1.1198,-9.4079
11320,-1.056,-13.13
11332,-2.2226,-9.5363
11344,-5.8348,-11.075
11355,-5.0411,-11.605
11367,-3.6373,-11.083
11379,-2.3818,-10.503
11391,-0.99482,-8.4423
11402,-2.8139,-9.9884
11414,-6.7298,-8.2577
11426,-5.4321,-10.693
11438,-7.6629,-13.123
11449,-5.912,-13.541
11461,-4.1841,-12.787
11473,-3.6905,-10.946
11484,-2.5621,-9.4104
11496,-3.0138,-9.0202
11508,-4.0516,-11.584
11520,-1.7704,-12.048
11531,-0.56933,-10.193
11543,-3.1994,-12.151
11555,-2.991,-9.6585
11566,-4.7973,-10.658
11578,-4.7814,-9.1851
11590,-2.8201,-9.3807
11602,-3.2274,-12.312
11613,-3.2911,-11.84
11625,-4.3567,-9.6036
11637,-3.6113,-9.0174
11648,-1.8561,-8.8905
11660,-0.7992,-8.743
11672,-4.2952,-7.7025
11684,-4.9966,-7.6947
11695,-4.253,-8.7332
11707,-3.619,-8.6455
11719,-2.3516,-9.4704
11730,-2.7385,-11.077
11742,-4.5984,-7.0275
11754,-2.8184,-8.8958
11766,-1.9261,-13.874
11777,-1.2597,-12.252
11789,-1.5267,-12.351
11801,-1.6258,-11.612
11813,-2.3039,-11.318
11824,-5.0392,-11.284
11836,-4.5572,-10.785
11848,-4.8053,-11.75
11859,-5.6347,-7.0071
11871,-5.5016,-6.5329
11883,-4.6369,-10.476
11895,-2.4818,-13.295
11906,-4.4673,-12.686
11918,-4.4376,-11.896
11930,-3.9225,-13.183
11941,-2.8007,-11.384
11953,-0.40746,-10.157
11965,-0.79511,-10.12
11977,-1.6701,-11.607
11988,-1.915,-7.8223
12000,-2.812,-6.6061
12012,-1.4049,-9.6266
12023,-1.2346,-14.129
12035,-1.4208,-13.113
12047,-0.39035,-11.061
12059,-0.66378,-12.849
12070,-1.7757,-12.819
12082,-3.9398,-12.182
12094,-3.3288,-12.595
12105,-5.9724,-11.001
12117,-5.728,-10.188
12129,-5.67,-11.519
12141,-1.9272,-14.371
12152,-0.30229,-13.118
12164,-1.5668,-13.081
12176,-5.3858,-15.106
12188,-4.8646,-15.092
12199,-5.6145,-11.197
12211,-4.1855,-10.957
12223,-3.5969,-11.847
12234,-5.87,-11.105
12246,-4.516,-8.4279
12258,-1.5726,-10.926
12270,-0.54309,-11.585
12281,-1.3544,-13.903
12293,-3.3082,-14.272
12305,-4.3827,-11.789
12316,-3.2442,-8.6142
12328,-2.2644,-8.4306
12340,-1.6276,-11.852
12352,-1.1134,-12.135
12363,-1.5006,-12.295
12375,-2.3274,-10.919
12387,-4.3284,-10.799
12398,-3.6221,-11.471
12410,-5.5735,-9.3609
12422,-3.2952,-11.327
12434,-1.2885,-10.903
12445,-1.5928,-11.737
12457,-2.2468,-11.371
12469,-4.5847,-11.895
12480,-2.8181,-12.977
12492,-2.9835,-12.587
12504,-3.1603,-9.5318
12516,-3.9966,-10.251
12527,-2.239,-13.732
12539,-3.7629,-13.333
12551,-4.7176,-11.335
12563,-5.5519,-11.823
12574,-5.4938,-13.598
12586,-3.9649,-12.928
12598,-4.4338,-12.562
12609,-2.5926,-14.274
12621,-3.2493,-12.85
12633,-4.3447,-12.133
12645,-4.7758,-11.977
12656,-3.5693,-11.276
12668,-3.4564,-9.6446
12680,-6.7824,-10.886
12691,-7.5551,-15.084
12703,-4.5432,-12.617
12715,-6.6135,-10.8
12727,-6.1686,-10.97
12738,-6.07,-10.023
12750,-4.6868,-12.177
12762,-6.273,-13.198
12773,-5.5585,-12.06
12785,-3.6314,-11.266
12797,-3.9175,-13.341
12809,-3.53,-12.92
12820,-2.6841,-14.67
12832,-3.6513,-16.758
12844,-6.464,-15.285
12855,-7.8087,-12.853
12867,-6.6735,-14.22
12879,-6.1428,-14.491
12891,-5.4655,-15.643
12902,-5.1757,-14.712
12914,-5.445,-11.761
12926,-6.0344,-12.782
12938,-5.1976,-13.762
12949,-3.8319,-15.082
12961,-4.5809,-14.558
12973,-4.8661,-12.016
12984,-4.7183,-13.629
12996,-5.2942,-13.907
13008,-6.2028,-17.237
13020,-6.4188,-15.873
13031,-7.635,-13.938
13043,-7.4063,-15.708
13055,-6.196,-15.546
13066,-6.5438,-16.591
13078,-6.4358,-15.879
13090,-5.7515,-14.654
13102,-7.1667,-14.347
13113,-6.7284,-15.607
13125,-7.3248,-15.108
13137,-3.4421,-12.109
13148,-3.2006,-12.451
13160,-3.6077,-12.746
13172,-5.4527,-13.303
13184,-6.9096,-14.363
13195,-5.0584,-14.803
13207,-6.2664,-13.184
13219,-9.1483,-13.995
13230,-8.3925,-14.686
13242,-7.4463,-16.896
13254,-7.2792,-13.967
13266,-6.9426,-14.247
13277,-5.3016,-16.923
13289,-5.9179,-14.574
13301,-5.0791,-12.991
13313,-6.8498,-14.462
13324,-6.7451,-13.901
13336,-7.189,-13.797
13348,-7.2572,-14.322
13359,-7.7864,-14.444
13371,-9.1693,-12.764
13383,-5.6399,-15.199
13395,-4.1339,-14.805
13406,-3.5342,-13.127
13418,-5.2845,-14.603
13430,-4.491,-12.235
13441,-4.8068,-14.109
13453,-5.1421,-15.826
13465,-5.4096,-16.295
13477,-5.8022,-11.811
13488,-2.6556,-13.438
13500,-3.9038,-16.209
13512,-4.5001,-14.025
13523,-4.6543,-15.333
13535,-5.3091,-17.151
13547,-6.5834,-15.824
13559,-8.6727,-15.656
13570,-9.1851,-14.957
13582,-6.9563,-13.442
13594,-9.3167,-15.783
13605,-7.9147,-17.564
13617,-7.733,-16.799
13629,-11.6,-16.501
13641,-8.3238,-14.305
13652,-7.1709,-13.089
13664,-6.511,-15.507
13676,-7.0381,-15.71
13688,-5.8176,-14.765
13699,-5.4012,-13.721
13711,-6.598,-13.258
13723,-7.7559,-14.802
13734,-8.9646,-14.817
13746,-8.4925,-15.629
13758,-8.0643,-18.051
13770,-6.0188,-15.978
13781,-6.956,-14.322
13793,-9.4767,-16.27
13805,-10.702,-16.575
13816,-8.3217,-15.322
13828,-8.135,-13.904
13840,-8.6426,-12.571
13852,-8.5019,-14.715
13863,-8.0168,-17.813
13875,-9.7798,-18.802
13887,-10.971,-18.1
13898,-10.285,-15.854
13910,-8.4046,-15.262
13922,-9.7794,-15.272
13934,-10.213,-14.658
13945,-8.1916,-17.937
13957,-8.2901,-17.011
13969,-8.0006,-14.048
13980,-8.3024,-15.533
13992,-9.6289,-16.936
14004,-10.284,-19.249
14016,-8.1019,-16.227
14027,-6.4201,-18.201
14039,-8.5201,-18.229
14051,-8.4181,-17.187
14063,-8.9056,-16.744
14074,-10.332,-14.259
14086,-9.0227,-15.131
14098,-8.0253,-14.358
14109,-6.9565,-14.079
14121,-7.5363,-15.578
14133,-10.438,-16.989
14145,-9.6035,-16.466
14156,-9.5014,-16.414
14168,-8.0938,-18.217
14180,-8.2896,-17.348
14191,-9.6135,-19.07
14203,-9.2832,-18.991
14215,-9.4571,-18.295
14227,-11.485,-17.648
14238,-12.897,-14.904
14250,-9.7613,-15.013
14262,-8.3895,-17.013
14273,-9.3414,-15.235
14285,-9.1129,-12.93
14297,-10.816,-15.814
14309,-7.777,-15.409
14320,-8.3642,-14.045
14332,-9.809,-17.784
14344,-9.2406,-17.083
14355,-10.391,-16.823
14367,-10.913,-18.466
14379,-11.047,-20.89
14391,-10.317,-18.765
14402,-9.7856,-19.941
14414,-10.777,-19.716
14426,-9.1596,-15.198
14438,-8.9249,-14.681
14449,-10.965,-18.264
14461,-9.4664,-17.797
14473,-10.448,-17.256
14484,-9.9423,-18.508
14496,-9.8524,-16.914
14508,-10.144,-18.509
14520,-10.963,-18.18
14531,-10.103,-19.289
14543,-9.4757,-19.019
14555,-8.8262,-16.813
14566,-10.242,-17.155
14578,-10.913,-17.865
14590,-11.748,-15.37
14602,-9.9997,-17.309
14613,-10.387,-16.473
14625,-13.186,-13.316
14637,-11.116,-16.326
14648,-11.848,-17.432
14660,-11.711,-15.723
14672,-9.9269,-14.887
14684,-9.2439,-16.972
14695,-10.088,-17.855
14707,-13.104,-20.125
14719,-11.602,-12.45
14730,-11.147,-16.107
14742,-10.299,-19.286
14754,-10.37,-17.079
14766,-9.5514,-19.346
14777,-8.9905,-20.559
14789,-8.6524,-18.02
14801,-10.155,-15.838
14813,-12.655,-15.046
14824,-10.361,-16.909
14836,-8.2143,-15.596
14848,-9.4318,-14.79
14859,-9.5118,-16.096
14871,-8.1601,-20.798
14883,-9.0571,-18.47
14895,-10.504,-18.551
14906,-8.9351,-19.089
14918,-9.8526,-17.359
14930,-10.554,-18.255
14941,-8.1379,-16.284
14953,-7.7541,-17.314
14965,-7.8527,-18.537
14977,-8.778,-15.459
14988,-9.8971,-16.893
15000,-8.5881,-16.677
15012,-8.9785,-17.94
15023,-9.3599,-18.538
15035,-8.2984,-18.673
15047,-7.8779,-16.646
15059,-9.1211,-17.688
15070,-11.571,-17.759
15082,-12.771,-17.054
15094,-11.754,-16.666
15105,-11.386,-16.068
15117,-10.185,-16.5
15129,-9.4225,-17.947
15141,-10.078,-21.775
15152,-11.721,-18.355
15164,-12.228,-15.709
15176,-12.458,-19.146
15188,-9.0267,-19.7
15199,-10.827,-18.187
15211,-11.851,-18.801
15223,-12.885,-17.558
15234,-10.208,-14.623
15246,-8.4873,-15.717
15258,-9.4723,-16.402
15270,-10.223,-18.471
15281,-9.4615,-19.623
15293,-8.0615,-18.033
15305,-7.9423,-19.589
15316,-8.592,-18.453
15328,-9.0145,-16.712
15340,-10.167,-19.199
15352,-8.3584,-18.314
15363,-8.1583,-17.341
15375,-9.6349,-18.511
15387,-11.664,-18.403
15398,-8.181,-16.308
15410,-7.4576,-16.912
15422,-9.3008,-19.945
15434,-10.906,-18.83
15445,-10.964,-17.797
15457,-9.0811,-18.528
15469,-11.376,-21.186
15480,-14.18,-19.876
15492,-12.833,-17.88
15504,-12.736,-17.591
15516,-15.17,-17.471
15527,-15.059,-17.869
15539,-14.64,-18.582
15551,-12.502,-20.412
15563,-10.995,-21.833
15574,-12.965,-21.597
15586,-12.392,-20.396
15598,-11.857,-18.045
15609,-13.701,-18.071
15621,-14.923,-16.01
15633,-14.953,-20.614
15645,-14.903,-20.569
15656,-15.394,-18.852
15668,-12.419,-18.021
15680,-12.275,-20.075
15691,-14.287,-21.58
15703,-15.718,-22.375
15715,-14.093,-19.952
15727,-11.747,-18.705
15738,-13.286,-15.72
15750,-14.38,-18.883
15762,-14.608,-20.28
15773,-13.504,-18.113
15785,-13.718,-20.838
15797,-13.853,-20.385
15809,-15.522,-19.294
15820,-13.642,-16.296
15832,-15.391,-15.074
15844,-12.979,-16.66
15855,-12.412,-17.923
15867,-13.999,-19.11
15879,-14.292,-20.877
15891,-15.079,-20.715
15902,-15.539,-19.257
15914,-15.544,-16.783
15926,-15.339,-19.665
15938,-14.521,-20.509
15949,-15.207,-17.138
15961,-14.805,-18.034
15973,-14.132,-20.55
15984,-14.81,-21.846
15996,-13.927,-20.157
16008,-15.186,-19.29
16020,-15.205,-19.681
16031,-14.807,-20.551
16043,-15.395,-20.766
16055,-15.093,-19.993
16066,-16.368,-17.353
16078,-14.774,-18.094
16090,-13.292,-20.626
16102,-14.109,-21.724
16113,-15.941,-23.706
16125,-15.091,-22.152
16137,-15.522,-19.542
16148,-15.538,-18.665
16160,-13.837,-18.81
16172,-15.345,-20.542
16184,-15.842,-19.759
16195,-15.366,-22.954
16207,-15.483,-22.485
16219,-16.836,-20.09
16230,-18.2,-18.254
16242,-16.118,-20.615
16254,-16.025,-21.406
16266,-16.004,-24.846
16277,-16.892,-20.943
16289,-17.383,-20.35
16301,-16.224,-20.286
16313,-16.025,-18.227
16324,-16.069,-20.429
16336,-15.995,-21.033
16348,-15.666,-22.263
16359,-16.942,-21.223
16371,-15.812,-21.546
16383,-14.974,-20.52
16395,-16.35,-21.918
16406,-18.707,-22.731
16418,-17.521,-21.86
16430,-17.339,-22.625
16441,-17.195,-19.72
16453,-18.712,-20.456
16465,-16.134,-21.328
16477,-16.177,-21.146
16488,-17.361,-18.787
16500,-16.411,-20.463
16512,-16.38,-19.114
16523,-17.559,-19.366
16535,-17.747,-20.175
16547,-18.475,-20.935
16559,-19.411,-20.833
16570,-19.578,-22.764
16582,-16.232,-22.837
16594,-14.577,-22.866
16605,-17.824,-21.076
16617,-19.565,-19.041
16629,-16.081,-19.488
16641,-16.582,-21.36
16652,-16.098,-22.637
16664,-17.421,-22.717
16676,-19.835,-23.123
16688,-19.603,-22.276
16699,-16.278,-19.921
16711,-16.619,-22.128
16723,-18.576,-22.9
16734,-18.85,-21.523
16746,-16.485,-21.54
16758,-16.186,-18.032
16770,-17.027,-20.154
16781,-16.91,-24.442
16793,-16.385,-23.23
16805,-15.528,-19.453
16816,-14.619,-22.024
16828,-16.543,-22.632
16840,-18.187,-20.239
16852,-18.614,-20.436
16863,-17.226,-20.901
16875,-15.567,-23.013
16887,-15.933,-23.135
16898,-15.436,-21.252
16910,-17.537,-21.597
16922,-18.273,-23.794
16934,-18.157,-22.891
16945,-17.893,-22.63
16957,-18.341,-21.924
16969,-19.931,-18.346
16980,-19.271,-19.776
16992,-19.436,-25.021
17004,-17.62,-22.479
17016,-16.511,-20.619
17027,-15.034,-20.193
17039,-16.521,-19.617
17051,-18.364,-20.089
17063,-19.526,-22.215
17074,-19.268,-24.382
17086,-18.797,-25.644
17098,-16.26,-21.407
17109,-15.338,-19.881
17121,-16.471,-21.866
17133,-19.529,-22.464
17145,-19.06,-20.594
17156,-17.722,-22.115
17168,-17.88,-22.699
17180,-17.601,-18.874
17191,-17.069,-17.982
17203,-18.085,-18.94
17215,-16.686,-24.563
17227,-16.117,-20.348
17238,-17.477,-20.67
17250,-19.647,-22.421
17262,-16.263,-21.692
17273,-14.883,-22.567
17285,-17.071,-22.301
17297,-16.781,-21.497
17309,-17.105,-23.109
17320,-16.855,-24.091
17332,-16.83,-22.189
17344,-16.848,-23.799
17355,-18.13,-22.194
17367,-16.3,-21.359
17379,-14.668,-22.653
17391,-15.97,-21.517
17402,-15.528,-21.039
17414,-17.242,-24.263
17426,-16.543,-22.578
17438,-15.057,-21.743
17449,-15.959,-20.935
17461,-18.363,-22.53
17473,-18.107,-21.747
17484,-15.672,-20.101
17496,-16.501,-21.756
17508,-18.889,-24.389
17520,-17.433,-23.292
17531,-15.532,-21.726
17543,-16.5,-21.824
17555,-16.455,-22.076
17566,-16.288,-23.716
17578,-14.796,-22.914
17590,-15.554,-23.646
17602,-17.577,-20.887
17613,-17.921,-20.206
17625,-17.694,-21.497
17637,-15.753,-22.872
17648,-15.695,-23.241
17660,-17.002,-23.709
17672,-18.242,-21.613
17684,-18.497,-21.603
17695,-18.069,-26.296
17707,-18.881,-23.51
17719,-19.964,-22.25
17730,-19.676,-22.824
17742,-17.899,-21.82
17754,-15.707,-20.861
17766,-15.778,-21.74
17777,-17.159,-22.726
17789,-20.439,-23.303
17801,-17.538,-23.394
17813,-15.517,-20.74
17824,-16.412,-19.312
17836,-17.356,-19.715
17848,-18.174,-22.846
17859,-18.328,-27.544
17871,-17.652,-24.428
17883,-18.214,-25.276
17895,-16.977,-24.473
17906,-16.749,-24.012
17918,-17.288,-26.968
17930,-17.681,-22.145
17941,-18.033,-21.196
17953,-20.609,-21.392
17965,-21.036,-21.831
17977,-21.11,-22.916
17988,-18.968,-22.934
18000,-16.356,-20.951
18012,-16.989,-20.406
18023,-16.944,-25.553
18035,-16.138,-29.016
18047,-16.967,-26.009
18059,-16.371,-24.799
18070,-17.06,-24.01
18082,-17.141,-22.092
18094,-17.906,-18.753
18105,-18.554,-20.013
18117,-18.307,-21.624
18129,-15.783,-22.889
18141,-17.005,-23.479
18152,-17.804,-21.146
18164,-16.806,-21.037
18176,-16.233,-21.714
18188,-17.093,-25.57
18199,-16.88,-24.679
18211,-18.176,-25.899
18223,-16.994,-24.968
18234,-17.512,-20.876
18246,-19.13,-22.52
18258,-20.002,-23.041
18270,-20.755,-24.633
18281,-17.532,-23.742
18293,-17.505,-21.896
18305,-17.71,-22.693
18316,-18.679,-21.299
18328,-19.947,-22.479
18340,-21.231,-22.279
18352,-17.544,-22.783
18363,-19.02,-21.92
18375,-19.817,-21.458
18387,-17.638,-20.638
18398,-16.765,-22.859
18410,-16.256,-21.899
18422,-18.404,-23.615
18434,-18.701,-24.05
18445,-18.404,-23.147
18457,-18.635,-20.967
18469,-18.028,-21.334
18480,-18.298,-23.578
18492,-18.202,-25.42
18504,-17.284,-23.225
18516,-19.673,-23.655
18527,-20.864,-24.905
18539,-18.687,-25.303
18551,-16.337,-24.642
18563,-17.457,-25.771
18574,-18.685,-26.605
18586,-17.112,-26.807
18598,-16.517,-23.51
18609,-17.545,-21.981
18621,-19.817,-23.343
18633,-19.7,-24.393
18645,-18.921,-23.039
18656,-21.581,-24.336
18668,-23.175,-27.054
18680,-23.185,-26.657
18691,-21.329,-22.715
18703,-20.133,-23.201
18715,-19.558,-25.234
18727,-21.961,-23.278
18738,-23.909,-22.608
18750,-21.545,-24.067
18762,-20.117,-22.762
18773,-18.528,-22.667
18785,-18.216,-23.783
18797,-18.416,-25.55
18809,-18.102,-25.643
18820,-20.932,-25.221
18832,-21.712,-24.898
18844,-21.696,-23.593
18855,-20.4,-25.802
18867,-20.169,-24.317
18879,-20.488,-24.455
18891,-21.089,-26.162
18902,-21.673,-26.969
18914,-21.182,-26.131
18926,-21.959,-26.589
18938,-21.606,-25.965
18949,-19.787,-23.255
18961,-21.781,-25.481
18973,-19.591,-28.344
18984,-20.869,-27.267
18996,-23.883,-23.019
19008,-23.565,-24.135
19020,-21.377,-23.963
19031,-19.251,-23.363
19043,-20.761,-23.022
19055,-22.437,-23.869
19066,-21.491,-24.271
19078,-20.941,-23.468
19090,-22.725,-25.085
19102,-22.787,-21.806
19113,-21.596,-21.963
19125,-23.481,-23.619
19137,-20.206,-24.669
19148,-20.89,-23.129
19160,-22.859,-23.565
19172,-24.124,-22.503
19184,-22.9,-23.894
19195,-21.167,-24.637
19207,-19.856,-25.003
19219,-19.856,-26.343
19230,-21.837,-25.118
19242,-23.948,-23.32
19254,-23.382,-22.265
19266,-21.968,-23.957
19277,-21.717,-22.447
19289,-22.571,-25.554
19301,-21.643,-25.773
19313,-21.73,-23.401
19324,-21.733,-21.054
19336,-23.057,-22.88
19348,-23.47,-24.095
19359,-23.564,-23.391
19371,-24.034,-23.713
19383,-23.403,-21.891
19395,-21.852,-20.898
19406,-22.908,-23.756
19418,-24.103,-23.667
19430,-22.944,-22.896
19441,-24.251,-22.287
19453,-23.392,-22.701
19465,-20.637,-25.728
19477,-19.759,-26.875
19488,-19.495,-24.042
19500,-20.896,-24.992
19512,-22.792,-24.33
19523,-22.892,-24.687
19535,-22.831,-26.861
19547,-23.057,-25.753
19559,-24.237,-23.861
19570,-24.282,-22.701
19582,-24.385,-22.862
19594,-22.692,-26.496
19605,-22.701,-24.915
19617,-21.69,-23.751
19629,-19.919,-25.517
19641,-23.23,-27.238
19652,-20.862,-24.954
19664,-21.684,-25.241
19676,-23.831,-26.848
19688,-25.316,-24.335
19699,-25.48,-25.201
19711,-24.234,-27.169
19723,-22.263,-26.235
19734,-24.306,-26.724
19746,-25.288,-25.921
19758,-25.534,-26.532
19770,-26.409,-27.199
19781,-25.104,-25.047
19793,-27.454,-23.695
19805,-25.25,-24.014
19816,-25.324,-24.787
19828,-23.949,-23.441
19840,-23.541,-23.126
19852,-22.944,-24.362
19863,-23.399,-25.729
19875,-22.752,-24.445
19887,-24.169,-23.864
19898,-23.702,-27.796
19910,-24.183,-28.034
19922,-27.266,-26.87
19934,-22.374,-25.36
19945,-19.451,-28.309
19957,-21.765,-25.173
19969,-22.406,-25.251
19980,-21.241,-28.679
19992,-21.904,-25.153
20004,-22.785,-22.506
20016,-23.595,-25.578
20027,-26.012,-26.327
20039,-24.603,-24.208
20051,-23.817,-23.34
20063,-25.093,-25.087
20074,-24.209,-25.534
20086,-22.232,-24.655
20098,-23.518,-22.81
20109,-22.361,-22.155
20121,-22.402,-23.749
20133,-22.051,-26.388
20145,-25.707,-26.196
20156,-28.378,-24.977
20168,-24.503,-24.469
20180,-24.563,-26.626
20191,-24.8,-26.99
20203,-24.453,-26.441
20215,-26.648,-26.63
20227,-27.07,-28.998
20238,-24.502,-26.188
20250,-20.924,-26.94
20262,-21.616,-25.461
20273,-22.452,-24.722
20285,-24.886,-27.745
20297,-23.457,-30.324
20309,-21.371,-28.268
20320,-25.192,-28.733
20332,-24.493,-28.643
20344,-24.613,-29.731
20355,-24.239,-29.127
20367,-25.257,-27.026
20379,-25.553,-26.773
20391,-28.443,-28.499
20402,-22.523,-28.811
20414,-23.28,-27.45
20426,-25.041,-24.396
20438,-25.274,-25.337
20449,-25.106,-26.099
20461,-26.929,-24.187
20473,-27.072,-24.552
20484,-24.959,-25.898
20496,-24.999,-27.679
20508,-25.491,-28.258
20520,-26.177,-27.282
20531,-25.218,-24.988
20543,-22.928,-25.302
20555,-23.673,-28.148
20566,-26.596,-26.943
20578,-24.913,-27.804
20590,-25.369,-24.783
20602,-27.343,-23.922
20613,-26.732,-23.28
20625,-26.429,-24.467
20637,-25.248,-24.555
20648,-25.979,-23.936
20660,-22.554,-22.862
20672,-21.922,-24.548
20684,-24.2,-26.617
20695,-23.112,-25.215
20707,-25.644,-24.396
20719,-26.564,-24.419
20730,-23.72,-26.578
20742,-23.435,-26.787
20754,-23.639,-25.083
20766,-27.371,-28.957
20777,-24.958,-26.111
20789,-25.405,-26.259
20801,-27.318,-32.369
20813,-25.691,-28.966
20824,-23.86,-26.02
20836,-22.753,-23.766
20848,-23.107,-26.106
20859,-23.4,-26.228
20871,-22.745,-25.587
20883,-24.58,-28.558
20895,-25.863,-26.996
20906,-24.964,-25.071
20918,-25.16,-25.896
20930,-25.007,-26.634
20941,-22.986,-23.858
20953,-25.56,-27.492
20965,-26.95,-29.052
20977,-26.737,-26.641
20988,-23.554,-26.648
21000,-24.29,-27.907
21012,-24.75,-26.972
21023,-25.891,-23.785
21035,-25.601,-25.178
21047,-25.816,-27.909
21059,-27.23,-26.017
21070,-27.923,-26.51
21082,-25.196,-28.916
21094,-26.337,-28.296
21105,-26.064,-27.842
21117,-26.028,-27.074
21129,-24.505,-24.486
21141,-24.311,-24.254
21152,-26.08,-23.409
21164,-26.285,-23.778
21176,-26.237,-26.265
21188,-25.948,-26.318
21199,-27.121,-28.472
21211,-29.399,-26.856
21223,-28.105,-26.441
21234,-28.104,-27.034
21246,-23.626,-26.465
21258,-24.74,-26.628
21270,-24.98,-26.439
21281,-27,-24.602
21293,-26.645,-24.187
21305,-24.338,-24.309
21316,-25.808,-24.612
21328,-26.976,-25.995
21340,-27.887,-26.978
21352,-26.896,-26.45
21363,-27.625,-24.407
21375,-25.284,-23.45
21387,-23.594,-25.617
21398,-24.306,-28.442
21410,-25.655,-27.169
21422,-24.942,-26.865
21434,-25.833,-26.186
21445,-25.475,-22.645
21457,-23.593,-22.884
21469,-22.384,-24.781
21480,-25.202,-24.69
21492,-27.602,-26.024
21504,-25.89,-21.504
21516,-27.081,-23.637
21527,-27.596,-23.215
21539,-25.055,-21.186
21551,-25.193,-25.093
21563,-25.617,-21.878
21574,-26.605,-20.606
21586,-24.034,-19.36
21598,-25.949,-22.477
21609,-25.075,-23.883
21621,-20.95,-22.038
21633,-19.435,-20.103
21645,-22.342,-18.446
21656,-24.532,-18.045
21668,-28.602,-24.376
21680,-29.148,-25.939
21691,-25.864,-25.172
21703,-23.491,-25.937
21715,-25.408,-27.479
21727,-26.025,-24.918
21738,-26.804,-23.189
21750,-26.257,-22.771
21762,-27.476,-22.593
21773,-26.739,-26.058
21785,-29.655,-26.921
21797,-27.868,-27.815
21809,-25.936,-26.376
21820,-26.123,-28.008
21832,-26.287,-30.122
21844,-26.514,-25.502
21855,-27.105,-24.469
21867,-27.051,-24.905
21879,-24.635,-23.084
21891,-27.13,-24.323
21902,-25.6,-27.342
21914,-25.28,-29.831
21926,-28.602,-27.26
21938,-27.428,-27.709
21949,-26.105,-27.21
21961,-26.702,-30.667
21973,-27.029,-26.552
21984,-28.359,-26.831
21996,-28.562,-25.884
22008,-28.218,-25.796
22020,-26.796,-25.428
22031,-29.325,-26.076
22043,-29.625,-26.773
22055,-30.114,-29.203
22066,-27.469,-27.779
22078,-25.812,-27.568
22090,-23.943,-28.382
22102,-23.037,-26.01
22113,-27.21,-24.203
22125,-25.541,-26.897
22137,-24.275,-27.945
22148,-26.641,-25.813
22160,-29.242,-25.963
22172,-29.345,-29.183
22184,-30.186,-28.002
22195,-28.615,-26.682
22207,-27.888,-27.266
22219,-29.332,-26.837
22230,-31.195,-26.174
22242,-29.309,-24.416
22254,-27.159,-24.684
22266,-24.698,-28.676
22277,-25.55,-27.957
22289,-29.426,-26.902
22301,-28.101,-26.177
22313,-27.907,-25.343
22324,-27.729,-26.675
22336,-27.606,-27.886
22348,-28.133,-26.318
22359,-25.937,-25.374
22371,-24.046,-25.199
22383,-27.436,-26.236
22395,-25.298,-29.676
22406,-26.487,-30.838
22418,-27.86,-27.615
22430,-27.774,-25.13
22441,-24.23,-25.261
22453,-25.49,-28.124
22465,-26.813,-29.652
22477,-26.55,-25.61
22488,-26.849,-26.133
22500,-28.221,-28.858
22512,-29.474,-29.049
22523,-27.698,-27.48
22535,-27.091,-27.797
22547,-28.004,-29.278
22559,-28.516,-25.825
22570,-27.478,-23.46
22582,-27.697,-26.231
22594,-24.988,-25.77
22605,-26.436,-27.195
22617,-27.934,-28.545
22629,-24.605,-26.364
22641,-24.738,-24.603
22652,-27.924,-27.553
22664,-28.774,-30.759
22676,-30.155,-29.573
22688,-27.7,-27.559
22699,-28.391,-24.869
22711,-30.349,-26.712
22723,-26.336,-29.081
22734,-27.965,-27.224
22746,-29.906,-27.258
22758,-27.844,-26.651
22770,-27.059,-26.276
22781,-27.95,-26.636
22793,-26.85,-25.698
22805,-25.305,-25.888
22816,-27.317,-30.031
22828,-28.871,-30.736
22840,-30.701,-30.164
22852,-30.316,-26.329
22863,-29.31,-26.809
22875,-29.712,-27.167
22887,-28.494,-26.986
22898,-27.671,-29.459
22910,-26.545,-29.196
22922,-27.415,-29.298
22934,-29.832,-26.093
22945,-29.869,-27.529
22957,-27.518,-27.658
22969,-26.563,-26.861
22980,-28.73,-26.382
22992,-28.95,-29.027
23004,-31.437,-28.075
23016,-29.077,-26.42
23027,-26.919,-29.615
23039,-25.258,-27.671
23051,-27.137,-26.496
23063,-28.854,-28.153
23074,-29.764,-28.741
23086,-29.677,-27.924
23098,-28.124,-27.54
23109,-29.025,-26.632
23121,-28.745,-27.577
23133,-26.258,-28.553
23145,-25.646,-29.904
23156,-26.358,-29.784
23168,-26.275,-28.049
23180,-26.579,-28.852
23191,-27.28,-29.046
23203,-29.013,-29.983
23215,-25.742,-28.109
23227,-27.391,-28.214
23238,-29.729,-26.138
23250,-32.353,-29.527
23262,-30.385,-30.029
23273,-29.812,-31.114
23285,-30.933,-28.107
23297,-28.658,-26.202
23309,-28.108,-28.341
23320,-28.735,-29.67
23332,-27.472,-26.166
23344,-27.492,-28.423
23355,-29.723,-31.429
23367,-26.669,-28.762
23379,-26.916,-28.179
23391,-26.083,-27.133
23402,-28.209,-24.653
23414,-30.419,-27.201
23426,-27.861,-28.912
23438,-27.411,-28.033
23449,-29.633,-27.197
23461,-28.47,-25.198
23473,-28.452,-24.667
23484,-27.661,-26.664
23496,-25.752,-28.871
23508,-27.22,-28.202
23520,-28.968,-27.526
23531,-27.068,-29.084
23543,-30.312,-31.222
23555,-28.424,-30.061
23566,-27.378,-31.602
23578,-29.219,-28.78
23590,-33.241,-28.019
23602,-29.226,-28.698
23613,-28.869,-29.189
23625,-28.043,-31.006
23637,-28.9,-27.9
23648,-29.545,-28.177
23660,-29.87,-30.093
23672,-28.409,-28.391
23684,-26.584,-27.845
23695,-27.437,-30.621
23707,-27.209,-28.973
23719,-27.682,-26.577
23730,-29.657,-31.131
23742,-28.591,-32.983
23754,-29.335,-28.919
23766,-28.873,-28.453
23777,-31.174,-30.841
23789,-28.895,-28.824
23801,-26.376,-28.526
23813,-23.707,-29.527
23824,-25.651,-26.557
23836,-30.762,-26.166
23848,-32.622,-26.949
23859,-30.628,-26.544
23871,-29.65,-26.518
23883,-26.59,-28.579
23895,-29.221,-32.573
23906,-30.02,-27.981
23918,-27.592,-32.161
23930,-27.588,-29.288
23941,-28.023,-27.744
23953,-30.23,-27.849
23965,-28.253,-28.321
23977,-26.401,-29.184
23988,-26.733,-27.657
