FFT,Power Spectrum
Frequency[Hz],Level-L[dB],Level-R[dB]
11.719,-3.2743,-63.016
23.438,15.842,-53.852
35.156,12.226,-38.803
46.875,14.75,-27.049
58.594,15.822,-26.42
70.313,16.163,-32.933
82.031,16.737,-29.994
93.75,22.429,-23.855
105.47,21.697,-21.244
117.19,18.331,-19.47
128.91,15.5,-17.575
140.63,17.333,-14.483
152.34,17.956,-14.683
164.06,20.476,-15.98
175.78,19.666,-15.929
187.5,20.274,-16.837
199.22,20.756,-15.459
210.94,16.494,-15.976
222.66,16.75,-18.248
234.38,22.229,-21.222
246.09,22.509,-16.631
257.81,20.353,-16.058
269.53,16.79,-13.597
281.25,14.376,-14.108
292.97,16.84,-16.704
304.69,17.555,-13.368
316.41,19.223,-12.485
328.13,18.398,-16.658
339.84,16.52,-14.51
351.56,15.516,-13.245
363.28,16.704,-11.922
375,14.982,-11.293
386.72,15.27,-10.711
398.44,13.458,-9.6551
410.16,12.775,-11.399
421.88,13.606,-10.336
433.59,13.737,-10.102
445.31,15.257,-10.6
457.03,17.124,-11.561
468.75,18.759,-11.935
480.47,16.638,-10.659
492.19,16.781,-13.289
503.91,19.397,-11.192
515.63,21.079,-12.556
527.34,19.611,-12.293
539.06,14.602,-8.512
550.78,18.649,-9.6338
562.5,20.5,-10.512
574.22,18.056,-7.7038
585.94,20.57,-7.7192
597.66,24.048,-11.081
609.38,26.25,-11.012
621.09,23.628,-14.515
632.81,20.807,-10.724
644.53,18.049,-10.218
656.25,18.897,-11.583
667.97,18.121,-10.423
679.69,20.299,-9.9463
691.41,20.342,-8.8636
703.13,18.433,-11.778
714.84,19.046,-12.667
726.56,17.392,-11.768
738.28,15.28,-10.63
750,17.597,-9.5425
761.72,14.52,-12.719
773.44,13.436,-13.051
785.16,16.682,-13.996
796.88,17.11,-11.805
808.59,15.682,-10.704
820.31,16.811,-9.6128
832.03,16.687,-8.9915
843.75,15.281,-9.4822
855.47,16.471,-8.9858
867.19,18.294,-8.6885
878.91,17.891,-7.8953
890.63,18.061,-7.3301
902.34,19.348,-10.505
914.06,20.645,-12.629
925.78,21.3,-12.469
937.5,19.503,-14.073
949.22,16.79,-10.518
960.94,14.905,-6.6168
972.66,14.047,-8.5403
984.38,10.948,-9.4188
996.09,15.166,-4.6515
1007.8,14.959,-3.6066
1019.5,16.25,-7.831
1031.3,17.332,-7.1677
1043,15.828,-8.4753
1054.7,17.634,-7.1802
1066.4,15.596,-7.8822
1078.1,15.409,-9.4026
1089.8,13.422,-7.5172
1101.6,15.266,-5.0628
1113.3,17.935,-3.6934
1125,20.843,-4.733
1136.7,18.211,-8.1458
1148.4,17.061,-7.1814
1160.2,15.503,-5.5218
1171.9,14.127,-6.3343
1183.6,16.837,-6.5452
1195.3,18.72,-7.0176
1207,19.282,-8.6124
1218.8,17.519,-7.6567
1230.5,18.27,-8.0473
1242.2,16.394,-9.4862
1253.9,15.428,-10.186
1265.6,14.325,-9.6409
1277.3,14.683,-6.7863
1289.1,14.43,-7.1312
1300.8,12.917,-7.1346
1312.5,12.18,-8.5843
1324.2,14.059,-7.0244
1335.9,14.362,-8.0737
1347.7,14.874,-6.3361
1359.4,14.248,-7.5663
1371.1,13.046,-10.498
1382.8,15.312,-6.6186
1394.5,19.087,-5.1309
1406.3,19.901,-4.8479
1418,17.713,-5.9201
1429.7,17.063,-8.7565
1441.4,18.304,-10.603
1453.1,18.29,-10.35
1464.8,14.06,-7.6948
1476.6,16.714,-8.1736
1488.3,13.358,-7.5954
1500,13.309,-6.49
1511.7,13.745,-6.5636
1523.4,15.67,-8.0544
1535.2,17.423,-11.155
1546.9,15.447,-11.582
1558.6,13.237,-9.6595
1570.3,14.453,-9.2766
1582,17.888,-6.5284
1593.8,16.49,-5.074
1605.5,16.63,-7.2957
1617.2,19.376,-8.9578
1628.9,16.821,-8.8721
1640.6,15.556,-7.1823
1652.3,14.555,-4.7332
1664.1,13.356,-5.0907
1675.8,11.383,-9.7726
1687.5,15.885,-9.4835
1699.2,18.024,-5.4889
1710.9,13.88,-5.6875
1722.7,14.077,-7.6995
1734.4,13.64,-7.8746
1746.1,15.061,-6.3054
1757.8,16.418,-7.911
1769.5,12.737,-7.994
1781.3,13.717,-5.4438
1793,16.148,-8.5454
1804.7,14.036,-9.8318
1816.4,15.387,-11.464
1828.1,15.997,-9.733
1839.8,14.906,-10.059
1851.6,13.584,-8.4568
1863.3,16.58,-4.9605
1875,16.455,-6.6742
1886.7,15.182,-10.52
1898.4,12.6,-8.5132
1910.2,10.14,-8.789
1921.9,13.462,-7.0953
1933.6,12.203,-6.0109
1945.3,13.918,-5.9731
1957,14.221,-6.5508
1968.8,13.671,-7.2637
1980.5,13.859,-7.9542
1992.2,12.982,-6.674
2003.9,10.722,-3.8688
2015.6,12.094,-3.8924
2027.3,11.298,-5.3259
2039.1,14.23,-5.2463
2050.8,13.484,-3.6502
2062.5,11.558,-6.6905
2074.2,12.821,-6.8343
2085.9,12.458,-6.755
2097.7,10.246,-6.7744
2109.4,12.11,-7.5645
2121.1,14.579,-5.1537
2132.8,14.565,-5.0915
2144.5,13.298,-5.6909
2156.3,13.426,-5.6615
2168,13.52,-7.5457
2179.7,10.567,-6.5077
2191.4,14.911,-5.8698
2203.1,13.994,-6.5607
2214.8,10.751,-8.6026
2226.6,8.4129,-11.222
2238.3,10.271,-6.919
2250,11.883,-8.4596
2261.7,13.248,-9.8191
2273.4,12.441,-9.8932
2285.2,8.5904,-8.1789
2296.9,7.7255,-7.2997
2308.6,9.4628,-5.1435
2320.3,11.161,-9.1973
2332,9.9345,-8.7628
2343.8,10.892,-7.3159
2355.5,11.594,-5.9624
2367.2,12.303,-6.8006
2378.9,10.204,-6.7389
2390.6,11.597,-8.6607
2402.3,12.622,-10.548
2414.1,10.573,-7.1238
2425.8,12.33,-4.9257
2437.5,13.281,-4.6515
2449.2,13.708,-6.521
2460.9,13.926,-7.1748
2472.7,11.367,-6.657
2484.4,12.32,-10.394
2496.1,12.634,-8.5578
2507.8,12.002,-7.6706
2519.5,13.742,-8.8033
2531.3,13.845,-5.1393
2543,9.8439,-4.0626
2554.7,8.7569,-6.5279
2566.4,9.678,-9.5833
2578.1,8.912,-10.001
2589.8,11.352,-8.7902
2601.6,13.302,-8.7113
2613.3,12.883,-4.4147
2625,11.212,-4.8678
2636.7,12.032,-6.686
2648.4,10.679,-7.4661
2660.2,11.949,-6.631
2671.9,12.143,-7.0851
2683.6,8.4664,-5.5531
2695.3,8.1511,-7.5953
2707,12.225,-10.252
2718.8,13.43,-7.95
2730.5,11.894,-8.9312
2742.2,8.081,-7.5372
2753.9,8.9215,-8.4187
2765.6,6.6597,-8.7927
2777.3,11.499,-8.0878
2789.1,9.3088,-10.633
2800.8,8.0782,-13.339
2812.5,9.4901,-8.9576
2824.2,9.9746,-7.5781
2835.9,9.6905,-5.2815
2847.7,11.558,-6.7195
2859.4,11.847,-8.8398
2871.1,12.813,-7.087
2882.8,13.886,-7.0678
2894.5,13.505,-8.7331
2906.3,13.456,-5.2091
2918,13.537,-4.812
2929.7,15.265,-5.0306
2941.4,12.644,-4.59
2953.1,10.655,-5.5431
2964.8,8.8323,-5.4063
2976.6,7.6321,-7.1721
2988.3,7.974,-6.8266
3000,9.8401,-7.3726
3011.7,11.279,-7.8209
3023.4,11.446,-7.7253
3035.2,11.896,-6.4787
3046.9,13.34,-5.7824
3058.6,12.822,-6.6975
3070.3,10.42,-5.5281
3082,6.7084,-6.7934
3093.8,8.5517,-6.2938
3105.5,13.666,-10.196
3117.2,12.443,-8.2353
3128.9,11.805,-8.5791
3140.6,11.64,-6.3376
3152.3,12.863,-4.7907
3164.1,13.234,-5.9052
3175.8,10.549,-5.4441
3187.5,5.7281,-3.7335
3199.2,7.6059,-5.9324
3210.9,9.2408,-10.064
3222.7,9.9106,-10.292
3234.4,9.2305,-9.5408
3246.1,10.275,-6.6849
3257.8,10.345,-6.3713
3269.5,8.5947,-7.8657
3281.3,6.9247,-8.7216
3293,8.2627,-8.7622
3304.7,9.1744,-7.9482
3316.4,9.2729,-7.2705
3328.1,6.1477,-7.3938
3339.8,9.26,-8.3325
3351.6,11.487,-5.7003
3363.3,10.939,-6.5286
3375,10.018,-7.0628
3386.7,10.234,-5.0626
3398.4,7.9229,-4.5718
3410.2,6.7245,-7.8612
3421.9,8.7983,-11.871
3433.6,10.931,-10.848
3445.3,11.39,-6.6076
3457,9.3008,-3.8113
3468.8,10.173,-5.1222
3480.5,10.128,-6.2918
3492.2,10.387,-6.0717
3503.9,11.69,-6.7677
3515.6,10.848,-8.2435
3527.3,10.852,-6.7962
3539.1,11.537,-5.0723
3550.8,10.033,-5.2513
3562.5,9.548,-5.6795
3574.2,10.086,-4.9629
3585.9,8.1993,-5.3892
3597.7,8.1566,-5.0856
3609.4,8.1534,-6.9648
3621.1,7.7868,-8.4965
3632.8,5.7206,-5.7966
3644.5,4.7576,-6.8525
3656.3,4.4553,-9.9116
3668,9.5519,-7.6831
3679.7,8.7085,-8.1184
3691.4,4.7359,-9.5504
3703.1,8.7536,-8.9104
3714.8,10.728,-6.9918
3726.6,6.0573,-7.3488
3738.3,7.802,-8.5115
3750,9.155,-9.3416
3761.7,8.4689,-7.708
3773.4,5.3879,-8.9339
3785.2,6.4553,-9.0805
3796.9,5.871,-6.8955
3808.6,8.1405,-7.7949
3820.3,10.511,-9.5718
3832,11.886,-8.395
3843.8,9.513,-5.5571
3855.5,10.21,-5.5827
3867.2,9.8791,-6.6415
3878.9,8.0801,-11.157
3890.6,8.9507,-6.3312
3902.3,9.9366,-7.2105
3914.1,8.3605,-8.3549
3925.8,8.1321,-12.026
3937.5,7.4483,-8.9715
3949.2,7.5342,-8.8632
3960.9,9.4772,-6.3287
3972.7,9.5146,-7.7302
3984.4,8.5938,-6.8012
3996.1,6.7919,-8.1847
4007.8,7.5187,-5.8695
4019.5,5.8817,-6.6096
4031.3,8.139,-5.2588
4043,9.9618,-5.5003
4054.7,9.6552,-7.6678
4066.4,9.5593,-7.5689
4078.1,9.4495,-7.5051
4089.8,7.8498,-9.9527
4101.6,8.0461,-8.5466
4113.3,9.6502,-7.1659
4125,7.2342,-5.9449
4136.7,11.447,-4.4334
4148.4,10.419,-6.7376
4160.2,8.2265,-8.1657
4171.9,11.564,-10.197
4183.6,12.62,-12.73
4195.3,12.318,-10.024
4207,11.252,-8.9517
4218.8,8.9661,-10.034
4230.5,6.9878,-11.41
4242.2,9.8315,-9.5224
4253.9,7.9651,-7.2088
4265.6,7.5628,-7.3399
4277.3,8.956,-6.4131
4289.1,8.1885,-7.2388
4300.8,8.4987,-8.4085
4312.5,10.127,-10.414
4324.2,11.233,-10.473
4335.9,9.7335,-7.877
4347.7,7.4789,-6.2919
4359.4,10.476,-6.5122
4371.1,7.7637,-6.3959
4382.8,7.9362,-8.319
4394.5,6.8849,-11.343
4406.3,8.2255,-8.9589
4418,6.3488,-9.3784
4429.7,6.3983,-8.5004
4441.4,8.005,-11.118
4453.1,4.1686,-10.541
4464.8,4.8735,-6.0817
4476.6,6.3688,-3.4306
4488.3,6.3707,-3.8341
4500,6.3737,-8.0865
4511.7,5.2976,-8.3655
4523.4,3.6968,-7.8295
4535.2,5.9407,-6.9044
4546.9,8.2255,-7.4883
4558.6,8.1723,-8.2519
4570.3,6.5522,-7.3171
4582,7.7757,-7.8228
4593.8,9.1785,-6.3565
4605.5,9.2373,-5.9792
4617.2,10.054,-6.946
4628.9,7.1503,-3.8997
4640.6,5.8998,-4.451
4652.3,5.2138,-7.8837
4664.1,7.6947,-6.9098
4675.8,9.1396,-6.5092
4687.5,9.0289,-10.132
4699.2,9.1201,-7.5754
4710.9,7.8217,-7.7122
4722.7,3.4902,-6.9296
4734.4,3.7644,-9.294
4746.1,5.2501,-8.1666
4757.8,7.4042,-9.2084
4769.5,7.5103,-10.675
4781.3,5.6289,-8.9222
4793,2.5166,-8.0893
4804.7,6.543,-9.1653
4816.4,10.015,-8.8231
4828.1,9.8419,-11.125
4839.8,6.9954,-11.759
4851.6,5.313,-9.7056
4863.3,2.7027,-7.0135
4875,0.83709,-6.5542
4886.7,4.7325,-11.246
4898.4,7.5997,-9.571
4910.2,5.6468,-8.9202
4921.9,5.5222,-8.0454
4933.6,9.0482,-9.8824
4945.3,9.5158,-6.1757
4957,7.2787,-5.9773
4968.8,7.2536,-6.4231
4980.5,6.3207,-9.8191
4992.2,8.4779,-6.0952
5003.9,7.2773,-5.6323
5015.6,6.8771,-11.601
5027.3,6.3578,-10.607
5039.1,3.9507,-9.7327
5050.8,5.1845,-10.622
5062.5,7.3719,-8.0825
5074.2,7.3188,-7.7734
5085.9,7.9368,-8.7271
5097.7,7.3042,-8.7748
5109.4,7.0953,-8.9564
5121.1,6.2851,-8.422
5132.8,2.6079,-7.7026
5144.5,3.2922,-9.8401
5156.3,4.6653,-7.4012
5168,6.9954,-5.9933
5179.7,6.6818,-6.8584
5191.4,5.3636,-7.8485
5203.1,5.1271,-8.2613
5214.8,7.6829,-9.6443
5226.6,9.625,-10.347
5238.3,9.3988,-5.3756
5250,5.1458,-6.2438
5261.7,8.9188,-8.8266
5273.4,9.3359,-12.009
5285.2,5.2221,-10.284
5296.9,7.9428,-9.6828
5308.6,5.9039,-10.862
5320.3,2.7511,-9.1109
5332,6.2069,-9.9468
5343.8,6.4954,-11.12
5355.5,4.1035,-9.3833
5367.2,5.9435,-6.5537
5378.9,6.9731,-8.692
5390.6,9.1919,-8.6127
5402.3,7.207,-9.2174
5414.1,3.8084,-8.6509
5425.8,2.8907,-7.3121
5437.5,4.2461,-5.9141
5449.2,1.078,-5.5803
5460.9,4.2476,-6.7256
5472.7,5.4274,-7.6301
5484.4,7.3099,-6.6432
5496.1,3.0001,-6.9107
5507.8,6.0563,-12.817
5519.5,6.2465,-9.056
5531.3,7.0882,-6.2552
5543,6.9685,-6.483
5554.7,6.7108,-8.1378
5566.4,3.2082,-7.5254
5578.1,3.3442,-6.4571
5589.8,4.8551,-7.0473
5601.6,6.954,-8.9802
5613.3,5.57,-8.6008
5625,7.4744,-9.3786
5636.7,9.2827,-9.1645
5648.4,5.9039,-7.5537
5660.2,3.9838,-5.2324
5671.9,3.5228,-7.1071
5683.6,4.4396,-8.7154
5695.3,5.527,-6.6205
5707,5.6158,-6.2297
5718.8,5.4825,-5.4
5730.5,6.2831,-4.9088
5742.2,4.4409,-8.2832
5753.9,7.2103,-11.344
5765.6,7.7414,-9.3093
5777.3,6.8717,-8.6547
5789.1,5.6659,-8.5927
5800.8,5.2672,-10.991
5812.5,2.5446,-10.227
5824.2,7.9793,-8.4674
5835.9,7.4014,-10.406
5847.7,8.6671,-10.061
5859.4,6.6278,-9.7123
5871.1,1.5853,-8.7858
5882.8,4.9147,-9.7294
5894.5,6.7517,-8.6309
5906.3,6.3529,-7.6552
5918,6.4104,-6.8377
5929.7,8.1095,-5.4178
5941.4,7.1888,-7.7731
5953.1,3.2925,-7.8935
5964.8,3.0911,-10.545
5976.6,6.9391,-9.3602
5988.3,7.6265,-8.1266
6000,6.1763,-8.62
6011.7,3.5868,-6.7294
6023.4,3.551,-10.234
6035.2,4.9323,-8.2567
6046.9,4.0133,-8.0174
6058.6,2.039,-6.5132
6070.3,4.9021,-6.8518
6082,6.1675,-6.7527
6093.8,6.1325,-8.1424
6105.5,6.3306,-9.1202
6117.2,6.1431,-7.9665
6128.9,4.7014,-9.2082
6140.6,1.6799,-9.8914
6152.3,1.7876,-8.95
6164.1,1.5275,-6.8337
6175.8,3.3398,-7.8327
6187.5,3.086,-8.3853
6199.2,1.7646,-8.5854
6210.9,2.7663,-8.6111
6222.7,3.3163,-8.9349
6234.4,2.8093,-8.1841
6246.1,0.91815,-9.1538
6257.8,2.9304,-10.454
6269.5,5.5466,-7.802
6281.3,4.3786,-7.083
6293,7.4364,-8.3504
6304.7,9.7502,-9.6588
6316.4,7.1805,-8.0247
6328.1,4.35,-8.0163
6339.8,3.6504,-9.632
6351.6,5.1767,-12.042
6363.3,4.6879,-8.534
6375,-1.0486,-10.527
6386.7,-0.81601,-10.66
6398.4,0.67349,-7.8193
6410.2,2.3638,-8.5059
6421.9,3.5569,-10.274
6433.6,2.5209,-11.058
6445.3,6.1639,-10.08
6457,6.4287,-8.867
6468.8,2.3656,-9.1515
6480.5,2.1484,-10.011
6492.2,7.1069,-8.0443
6503.9,6.9163,-8.9366
6515.6,5.031,-9.2541
6527.3,4.1143,-4.5997
6539.1,4.8493,-5.7637
6550.8,3.4853,-6.66
6562.5,1.8899,-9.0766
6574.2,3.7966,-6.1609
6585.9,4.3547,-6.7348
6597.7,4.4677,-7.2113
6609.4,6.6406,-7.5378
6621.1,4.7238,-9.799
6632.8,5.2137,-9.0989
6644.5,6.7146,-9.0108
6656.3,5.8008,-9.0475
6668,4.1901,-7.7976
6679.7,4.5455,-6.3761
6691.4,4.3509,-7.3268
6703.1,4.1958,-7.8762
6714.8,5.1258,-9.1516
6726.6,4.9801,-11.441
6738.3,4.7489,-12.124
6750,3.9293,-8.5274
6761.7,2.9661,-8.8356
6773.4,3.9562,-7.8088
6785.2,1.9682,-10.136
6796.9,2.0019,-11.23
6808.6,4.02,-13.268
6820.3,2.1706,-13.218
6832,-1.9478,-12.47
6843.8,3.053,-9.1291
6855.5,2.6635,-8.0889
6867.2,3.2725,-10.468
6878.9,3.1814,-10.589
6890.6,4.2925,-9.5603
6902.3,4.6452,-10.017
6914.1,6.9514,-8.5693
6925.8,6.6269,-6.5228
6937.5,4.1508,-6.1609
6949.2,4.1254,-4.9061
6960.9,3.5673,-4.5462
6972.7,3.9465,-7.379
6984.4,4.9536,-8.2352
6996.1,1.8805,-7.1798
7007.8,4.509,-5.9908
7019.5,3.5316,-6.5372
7031.3,4.2139,-8.0861
7043,3.208,-8.0484
7054.7,4.2334,-6.5373
7066.4,3.9378,-8.5106
7078.1,-0.22876,-7.9652
7089.8,2.3428,-9.5511
7101.6,4.66,-9.4381
7113.3,5.3315,-8.9813
7125,4.255,-10.882
7136.7,1.031,-9.1065
7148.4,2.1629,-10.125
7160.2,4.6381,-11.436
7171.9,1.891,-8.2131
7183.6,3.7126,-7.3611
7195.3,2.6025,-8.2751
7207,5.0757,-10.444
7218.8,5.9487,-13.817
7230.5,4.8939,-11.106
7242.2,1.1056,-13.164
7253.9,1.8131,-10.755
7265.6,3.5714,-11.033
7277.3,4.3649,-8.2076
7289.1,1.3622,-9.3578
7300.8,0.82541,-10.337
7312.5,4.7047,-7.9499
7324.2,5.4104,-8.1972
7335.9,4.5548,-8.7901
7347.7,2.4439,-11.647
7359.4,2.4848,-8.5744
7371.1,4.0908,-9.2139
7382.8,3.2828,-9.715
7394.5,5.7,-10.168
7406.3,4.3879,-13.571
7418,4.582,-9.0385
7429.7,1.3827,-7.1856
7441.4,1.4564,-9.7585
7453.1,3.6574,-10.379
7464.8,0.57733,-8.5778
7476.6,3.541,-7.1584
7488.3,1.9117,-6.5171
7500,1.7826,-9.6668
7511.7,2.1576,-9.8743
7523.4,-0.26873,-9.7413
7535.2,-0.49926,-9.1213
7546.9,-0.22837,-6.9078
7558.6,5.8,-10.174
7570.3,5.6473,-11.042
7582,1.5478,-7.1613
7593.8,1.5557,-6.7468
7605.5,2.3722,-8.8576
7617.2,1.037,-9.9777
7628.9,1.0263,-9.4587
7640.6,4.1344,-9.3763
7652.3,2.6016,-9.1897
7664.1,-1.8354,-8.255
7675.8,0.66241,-8.4756
7687.5,1.6147,-9.4542
7699.2,1.1551,-10.727
7710.9,1.2648,-12.304
7722.7,0.25998,-8.5015
7734.4,3.2922,-7.8647
7746.1,5.0826,-11.353
7757.8,4.7776,-12.498
7769.5,3.9333,-6.3815
7781.3,4.8928,-7.7707
7793,4.7625,-6.9685
7804.7,2.4528,-6.9948
7816.4,3.9656,-9.5897
7828.1,3.7636,-9.7416
7839.8,1.7755,-11.361
7851.6,-0.18237,-8.2157
7863.3,0.92699,-6.9335
7875,-0.61462,-10.922
7886.7,2.3789,-11.126
7898.4,3.6092,-10.006
7910.2,3.8932,-7.8543
7921.9,1.6974,-6.8911
7933.6,-0.88944,-11.89
7945.3,-1.5234,-10.592
7957,-1.1296,-9.2213
7968.8,1.3328,-10.284
7980.5,1.6513,-9.106
7992.2,3.3834,-8.7717
8003.9,4.8005,-8.0934
8015.6,1.9929,-9.1856
8027.3,3.3757,-9.5254
8039.1,2.2692,-12.178
8050.8,1.1384,-8.759
8062.5,2.3665,-9.7839
8074.2,1.6707,-11.943
8085.9,-1.1129,-7.9696
8097.7,-1.1043,-8.7728
8109.4,-0.30307,-7.9847
8121.1,0.89738,-7.4311
8132.8,3.04,-8.7626
8144.5,1.5327,-11.528
8156.3,3.9051,-9.1013
8168,3.4875,-7.3305
8179.7,4.0364,-9.2488
8191.4,5.1904,-8.9706
8203.1,2.2485,-7.2162
8214.8,3.2721,-7.4036
8226.6,1.7014,-8.4832
8238.3,-1.4385,-7.7555
8250,-0.32236,-8.8577
8261.7,-0.89552,-10.773
8273.4,3.2544,-8.1317
8285.2,3.2573,-8.2861
8296.9,-2.2074,-12.601
8308.6,0.72308,-8.8435
8320.3,0.60984,-9.0702
8332,1.9832,-8.7119
8343.8,3.7735,-11.115
8355.5,0.70921,-10.181
8367.2,-1.5951,-10.672
8378.9,1.1348,-13.372
8390.6,2.0686,-12.082
8402.3,2.8624,-9.2627
8414.1,3.6475,-7.7686
8425.8,4.1445,-9.4803
8437.5,4.3485,-8.5832
8449.2,4.6674,-7.4821
8460.9,3.1327,-9.5969
8472.7,0.16142,-11.586
8484.4,-0.34921,-11.759
8496.1,3.0046,-10.051
8507.8,1.6711,-9.8478
8519.5,2.0215,-12.628
8531.3,0.9863,-9.8655
8543,0.76662,-9.282
8554.7,-1.8665,-10.629
8566.4,0.18977,-8.7492
8578.1,2.643,-12.204
8589.8,3.6744,-7.6218
8601.6,3.6081,-6.254
8613.3,1.3142,-12.249
8625,3.2313,-13.765
8636.7,2.4071,-8.6674
8648.4,3.1519,-8.5207
8660.2,-0.096639,-8.5338
8671.9,-1.586,-8.3703
8683.6,1.077,-9.2459
8695.3,4.5194,-12.189
8707,1.6353,-9.4558
8718.8,-1.0447,-10.711
8730.5,2.169,-7.2668
8742.2,3.1249,-6.8794
8753.9,2.1307,-10.433
8765.6,1.0778,-10.675
8777.3,-0.76747,-11.03
8789.1,0.090352,-9.5025
8800.8,1.1685,-9.1501
8812.5,2.609,-9.5818
8824.2,3.5816,-9.1828
8835.9,3.0029,-9.9057
8847.7,1.3847,-7.4544
8859.4,2.1888,-10.73
8871.1,1.3929,-10.126
8882.8,1.2447,-9.2758
8894.5,1.4137,-8.8893
8906.3,0.79333,-10.048
8918,2.5029,-10.696
8929.7,1.2302,-9.8078
8941.4,-0.57712,-10.429
8953.1,-3.3742,-10.691
8964.8,1.5418,-11.276
8976.6,4.3261,-9.1828
8988.3,5.2229,-9.2582
9000,2.8649,-10.083
9011.7,1.2526,-6.2658
9023.4,1.0872,-7.1795
9035.2,3.0853,-10.961
9046.9,1.5889,-9.3333
9058.6,0.33095,-7.1536
9070.3,4.494,-6.4744
9082,3.7308,-8.8252
9093.8,2.1884,-8.7825
9105.5,0.71987,-9.2176
9117.2,0.026561,-9.9753
9128.9,-0.63472,-9.453
9140.6,-0.55873,-10.391
9152.3,-1.0277,-10.853
9164.1,-0.90795,-13.5
9175.8,0.19751,-12.09
9187.5,0.064881,-10.19
9199.2,-2.6717,-8.2064
9210.9,-2.1444,-7.9997
9222.7,-1.0549,-10.88
9234.4,-2.5812,-11.723
9246.1,-2.6939,-7.9887
9257.8,-0.52091,-6.473
9269.5,0.77509,-8.0746
9281.3,-2.011,-9.6257
9293,-1.8252,-11.684
9304.7,-0.4135,-14.61
9316.4,2.7074,-8.4778
9328.1,3.5915,-9.041
9339.8,4.9935,-10.566
9351.6,2.7033,-10.508
9363.3,-0.21686,-8.6687
9375,1.0589,-10.541
9386.7,-0.76894,-11.189
9398.4,-0.68327,-12.1
9410.2,1.6643,-9.7093
9421.9,3.8405,-9.573
9433.6,-2.1429,-9.0625
9445.3,1.3781,-7.1325
9457,2.0189,-8.4779
9468.8,-2.463,-9.3955
9480.5,-2.7994,-10.519
9492.2,-2.9816,-12.854
9503.9,-2.5372,-12.426
9515.6,-1.9589,-12.576
9527.3,1.3632,-12.474
9539.1,2.3031,-9.1059
9550.8,-0.017572,-7.931
9562.5,-0.33657,-10.61
9574.2,-0.42972,-5.6556
9585.9,1.0525,-8.1269
9597.7,1.5892,-12.957
9609.4,0.86856,-12.784
9621.1,1.7792,-11.544
9632.8,0.85385,-9.9347
9644.5,1.424,-8.5207
9656.3,1.5017,-9.4563
9668,2.1256,-12.936
9679.7,0.37201,-11.184
9691.4,-3.7403,-12.614
9703.1,-1.2079,-8.4805
9714.8,2.5565,-7.3507
9726.6,-0.2057,-9.0085
9738.3,0.43907,-7.0968
9750,1.5999,-7.3046
9761.7,-0.93854,-9.7642
9773.4,-1.3276,-10.158
9785.2,1.6156,-9.4527
9796.9,-0.19339,-10.753
9808.6,-1.4135,-14.35
9820.3,-1.9066,-13.913
9832,-1.6971,-7.1081
9843.8,-0.48176,-7.1762
9855.5,0.92283,-11.075
9867.2,-2.0946,-9.0789
9878.9,-0.25349,-9.8774
9890.6,-0.02588,-13.278
9902.3,0.19537,-9.976
9914.1,0.77534,-11.386
9925.8,-0.80964,-10.999
9937.5,1.3833,-11.483
9949.2,1.4947,-9.2211
9960.9,-2.4341,-10.956
9972.7,-1.1624,-11.025
9984.4,2.2878,-12.159
9996.1,1.2106,-12.032
10008,-1.6489,-11.783
10020,-0.56472,-14.243
10031,-0.62839,-12.483
10043,-1.2035,-11.044
10055,-0.81751,-15.32
10066,2.1558,-13.909
10078,2.4523,-10.932
10090,3.4998,-12.319
10102,0.80509,-14.156
10113,0.82274,-11.002
10125,0.77132,-8.6085
10137,-0.65014,-8.5111
10148,0.24586,-10.27
10160,-1.5002,-11.943
10172,-4.2892,-9.8938
10184,-2.9052,-9.2851
10195,-5.3151,-9.6387
10207,-0.15213,-10.224
10219,2.1697,-12.504
10230,-0.40063,-14.643
10242,-5.2016,-11.92
10254,-2.6203,-9.4166
10266,0.2615,-10.018
10277,-0.14591,-11.365
10289,0.067926,-13.112
10301,-0.15664,-15.131
10313,-1.4428,-12.603
10324,1.5648,-14.422
10336,0.75193,-16.571
10348,-3.8455,-14.087
10359,-4.1366,-12.685
10371,-0.33184,-10.615
10383,3.5693,-11.601
10395,-0.27805,-10.094
10406,-3.8571,-8.641
10418,-0.23137,-11.924
10430,-0.067585,-12.452
10441,-2.3565,-10.984
10453,-2.9322,-9.1463
10465,-2.1663,-10.015
10477,-1.3873,-10.196
10488,-0.51538,-11.044
10500,-1.5693,-11.465
10512,-3.0348,-10.302
10523,-1.6192,-12.273
10535,1.0973,-13.344
10547,3.0529,-11.297
10559,2.3246,-12.643
10570,0.13252,-11.428
10582,-0.62192,-10.988
10594,1.1015,-10.95
10605,1.3638,-11.299
10617,0.74375,-11.857
10629,-0.41798,-13.486
10641,-0.019084,-11.741
10652,-1.7563,-11.827
10664,-3.5229,-11.198
10676,-4.6316,-10.402
10688,-2.8478,-10.306
10699,-4.4328,-6.8153
10711,-0.83535,-6.0715
10723,-0.37883,-8.926
10734,-0.52901,-11.45
10746,-1.4427,-13.85
10758,-1.9388,-14.669
10770,-2.7951,-14.741
10781,-0.66988,-14.435
10793,0.66562,-13.218
10805,-0.88002,-10.898
10816,-2.1809,-11.072
10828,-3.2513,-15.117
10840,-0.85734,-16.254
10852,0.079575,-12.139
10863,-1.7155,-12.212
10875,0.7467,-15.472
10887,0.16101,-12.611
10898,-2.8468,-9.424
10910,-0.33631,-7.4801
10922,-0.20765,-10.946
10934,-2.9328,-13.34
10945,-4.1462,-15.289
10957,-2.2535,-13.453
10969,0.22764,-11.154
10980,2.186,-11.898
10992,-2.3657,-12.532
11004,-5.0537,-11.723
11016,-2.2836,-8.9291
11027,-2.3076,-11.007
11039,-3.759,-14.55
11051,-5.1082,-14.455
11063,-2.6571,-10.881
11074,-0.99774,-10.753
11086,-1.4929,-11.767
11098,-5.123,-9.1709
11109,-8.8058,-10.433
11121,-7.969,-11.726
11133,-3.5006,-12.648
11145,0.59534,-12.394
11156,0.17629,-13.922
11168,-0.41708,-14.397
11180,1.4972,-13.16
11191,-0.1114,-12.71
11203,-0.01272,-14.473
11215,0.018265,-15.011
11227,-0.28626,-12.83
11238,1.9904,-11.69
11250,-0.27366,-12.362
11262,-4.9442,-13.11
11273,-2.6112,-16.346
11285,-0.57846,-12.998
11297,-3.386,-11.232
11309,0.67225,-9.9895
11320,-0.71121,-8.6112
11332,-0.31458,-10.568
11344,-0.60733,-16.57
11355,-0.76181,-10.9
11367,-1.9098,-10.909
11379,-1.3481,-12.203
11391,-0.7203,-11.608
11402,-2.9941,-14.135
11414,-3.2359,-12.734
11426,-3.1995,-11.019
11438,-4.3601,-12.626
11449,-3.5543,-11.17
11461,-3.345,-13.79
11473,-5.9797,-14.267
11484,-5.4542,-12.693
11496,-3.4259,-13.853
11508,-1.403,-15.106
11520,-1.731,-10.295
11531,-2.2027,-8.4998
11543,-0.34096,-8.1758
11555,-1.0627,-8.8052
11566,-1.4924,-10.47
11578,-2.2022,-12.275
11590,-1.4814,-13.493
11602,-0.71331,-12.776
11613,-0.33699,-11.635
11625,-2.49,-12.291
11637,-5.903,-13.814
11648,-4.8323,-12.71
11660,-3.01,-11.069
11672,-0.85865,-12.095
11684,-3.0308,-13.05
11695,-1.7555,-15.891
11707,-3.7707,-12.716
11719,-5.0192,-10.91
11730,-1.7499,-13.567
11742,-3.7091,-13.968
11754,-6.6983,-13.055
11766,-6.1204,-12.669
11777,-1.4551,-12.037
11789,-1.0818,-12.844
11801,-4.2216,-13.157
11813,-2.4036,-15.364
11824,0.47853,-11.857
11836,1.689,-12.001
11848,-0.12947,-11.603
11859,1.597,-13.505
11871,-2.9663,-12.183
11883,-3.337,-10.939
11895,-4.1113,-11.876
11906,-0.92191,-14.869
11918,-3.7458,-12.642
11930,-4.0471,-10.171
11941,-5.2913,-12.088
11953,-3.6946,-12.751
11965,-2.3515,-12.305
11977,-3.231,-12.678
11988,-0.31415,-13.492
12000,-3.7692,-10.751
12012,-1.3834,-12.605
12023,-1.1316,-10.085
12035,-5.2033,-10.873
12047,-2.5607,-12.619
12059,-5.1692,-13.931
12070,-3.0133,-14.231
12082,-0.4329,-11.053
12094,-1.2258,-11.763
12105,-1.6374,-13.665
12117,-0.35984,-12.539
12129,-0.14286,-11.163
12141,-1.6288,-15.333
12152,-1.2439,-16.152
12164,-2.9733,-12.226
12176,-2.7105,-11.165
12188,-0.57582,-14.314
12199,-1.1947,-11.09
12211,-3.3088,-12.444
12223,-0.91987,-12.742
12234,-0.94991,-12.243
12246,-1.7788,-12.432
12258,-3.6711,-12.892
12270,-4.3154,-13.238
12281,-3.2586,-14.619
12293,-3.3072,-13.798
12305,-3.6628,-14.259
12316,-0.15713,-13.915
12328,-4.1354,-13.097
12340,-2.8126,-12.529
12352,-0.27802,-14.845
12363,-0.57111,-14.835
12375,-2.9157,-15.389
12387,-4.1055,-11.71
12398,-6.1967,-9.7192
12410,-1.335,-9.6954
12422,1.6096,-12.014
12434,-5.6713,-14.441
12445,-2.2762,-13.017
12457,-1.4151,-16.265
12469,-0.63266,-16.128
12480,-0.73225,-12.142
12492,-1.2665,-12.807
12504,-1.7272,-15.62
12516,-3.0817,-14.799
12527,-2.5642,-14.304
12539,-4.3534,-14.104
12551,-4.4059,-15.832
12563,-3.7766,-16.731
12574,-2.3612,-14.119
12586,0.24307,-12.446
12598,-3.5792,-9.5753
12609,-3.4631,-12.602
12621,-2.9322,-13.341
12633,-7.8855,-12.821
12645,-0.30282,-15.389
12656,-1.4808,-14.937
12668,-2.4318,-12.981
12680,0.86888,-11.649
12691,1.7687,-11.451
12703,-1.4826,-14.544
12715,-4.2479,-15.492
12727,-3.3157,-12.564
12738,-1.7958,-11.605
12750,-4.3357,-11.282
12762,-1.8481,-11.622
12773,-3.2383,-10.98
12785,-2.5566,-11.834
12797,-6.6075,-16.867
12809,-5.5856,-12.168
12820,-7.1666,-11.855
12832,-5.8543,-14.333
12844,-3.9434,-12.962
12855,-1.6137,-12.047
12867,-1.6227,-11.873
12879,-3.3247,-13.283
12891,-3.0408,-16.31
12902,-0.26899,-17.252
12914,0.91206,-13.414
12926,-0.35831,-12.879
12938,-4.3938,-12.303
12949,-5.3753,-15.906
12961,-0.92805,-15.174
12973,-0.90946,-13.378
12984,-1.554,-15.282
12996,-4.0925,-12.638
13008,-3.3461,-11.359
13020,-1.0158,-12.788
13031,-1.7665,-12.005
13043,-2.3737,-12.433
13055,-3.3925,-12.47
13066,-5.1245,-11.875
13078,-5.0574,-12.817
13090,-5.7506,-14.401
13102,-3.9635,-15.198
13113,-1.7053,-14.693
13125,-4.4397,-13.91
13137,-4.3979,-13.858
13148,-3.503,-11.235
13160,-3.084,-12.123
13172,-4.7003,-12.867
13184,-5.655,-11.183
13195,-3.1168,-12.647
13207,-2.2307,-14.103
13219,-2.3012,-15.407
13230,-3.8267,-15.196
13242,-0.2912,-15.065
13254,0.66369,-13.318
13266,-1.8494,-12.501
13277,-0.48961,-14.008
13289,-5.3923,-15.776
13301,-5.2637,-12.88
13313,-4.8123,-14.254
13324,-7.0465,-12.816
13336,-6.3868,-12.761
13348,-7.2525,-13.219
13359,-4.7958,-11.445
13371,-1.9137,-13.54
13383,-5.5877,-13.095
13395,-4.4454,-11.584
13406,-4.6099,-10.689
13418,-4.8722,-10.523
13430,-3.3458,-9.3223
13441,-4.0324,-9.6674
13453,-3.1286,-11.062
13465,-1.8432,-14.848
13477,-1.0894,-13.868
13488,-2.2898,-12.867
13500,-3.2301,-11.415
13512,-5.66,-12.948
13523,-5.9409,-12.931
13535,-7.2654,-12.349
13547,-6.7594,-15.175
13559,-6.4932,-13.276
13570,-4.4166,-11.795
13582,-2.6355,-13.604
13594,-3.3797,-15.944
13605,-3.0021,-10.824
13617,-0.91526,-10.202
13629,-0.0092248,-11.454
13641,-2.5766,-17.516
13652,-1.6258,-17.379
13664,-1.8001,-16.219
13676,-3.1959,-14.301
13688,-6.6874,-16.817
13699,-3.1865,-17.991
13711,-3.2138,-14.476
13723,-4.1471,-14.977
13734,-4.1846,-10.441
13746,-3.2239,-13.022
13758,-5.3183,-17.317
13770,-6.6018,-14.126
13781,-5.5508,-15.7
13793,-6.6963,-15.475
13805,-5.239,-15.604
13816,-3.9996,-14.234
13828,-1.9164,-11.691
13840,-5.6595,-9.5699
13852,-3.8115,-13.164
13863,-4.665,-16.228
13875,-2.9871,-12.338
13887,-2.8397,-11.326
13898,-6.544,-12.497
13910,-4.4775,-14.893
13922,-2.1929,-16.024
13934,-4.744,-13.899
13945,-6.0115,-12.492
13957,-1.7424,-12.838
13969,-5.0431,-12.093
13980,-4.2108,-14.342
13992,-3.4603,-15.999
14004,-3.5456,-15.084
14016,-4.2588,-12.247
14027,-6.9881,-12.534
14039,-5.5403,-11.744
14051,-4.329,-11.963
14063,-4.1564,-14.677
14074,-6.2572,-12.095
14086,-3.6443,-13.894
14098,-4.286,-17.725
14109,-3.9265,-13.496
14121,-3.2607,-12.744
14133,-3.4621,-15.334
14145,-6.6562,-12.837
14156,-7.8381,-13.226
14168,-4.1397,-15.218
14180,-5.2508,-14.771
14191,-3.6644,-14.4
14203,-5.7174,-14.739
14215,-2.3689,-16.525
14227,-1.2258,-14.491
14238,-3.9994,-16.54
14250,-5.2424,-11.019
14262,-5.3168,-11.809
14273,-3.698,-14.418
14285,-0.97888,-14.925
14297,-1.2903,-14.241
14309,-5.0848,-11.926
14320,-5.3542,-13.429
14332,-0.89446,-12.899
14344,-3.3322,-12.252
14355,-4.5909,-16.177
14367,-5.6248,-17.927
14379,-2.7812,-17.426
14391,-3.8853,-17.292
14402,-2.9453,-16.614
14414,-5.0592,-11.46
14426,-4.2499,-14.393
14438,-3.4427,-15.601
14449,-3.2127,-13.815
14461,-4.5437,-15.801
14473,-3.0025,-16.301
14484,-3.7427,-14.753
14496,-5.7035,-15.617
14508,-6.7976,-14.551
14520,-6.732,-15.134
14531,-5.8209,-13.774
14543,-6.019,-12.925
14555,-2.7201,-13.863
14566,-4.4255,-13.09
14578,-7.3403,-14.226
14590,-8.7785,-14.332
14602,-9.0339,-14.328
14613,-4.0346,-13.656
14625,-4.6635,-11.723
14637,-2.8841,-14.359
14648,-3.7556,-14.633
14660,-4.086,-12.945
14672,-4.5339,-12.78
14684,-4.3853,-12.882
14695,-6.3925,-14.25
14707,-4.8704,-14.231
14719,-4.932,-13.627
14730,-7.079,-16.972
14742,-5.7032,-14.004
14754,-6.2377,-17.192
14766,-6.4089,-15.959
14777,-6.3881,-15.199
14789,-8.9631,-16.94
14801,-6.3703,-17.136
14813,-9.0921,-17.584
14824,-5.4059,-17.059
14836,-4.7671,-16.894
14848,-6.3002,-17.069
14859,-4.5834,-14.818
14871,-6.8317,-14.152
14883,-4.3322,-17.653
14895,-7.3319,-16.186
14906,-3.1962,-17.151
14918,-4.6353,-17.06
14930,-2.9661,-14.88
14941,-8.033,-14.697
14953,-9.0065,-12.993
14965,-7.1627,-12.321
14977,-7.4033,-13.19
14988,-6.0485,-12.992
15000,-6.5103,-13.355
15012,-8.9684,-15.333
15023,-7.2506,-13.581
15035,-6.2327,-13.894
15047,-5.8978,-15.413
15059,-6.4774,-15.504
15070,-7.3506,-17.125
15082,-8.7691,-15.087
15094,-7.2594,-14.611
15105,-6.7779,-13.387
15117,-5.5935,-15.583
15129,-7.7597,-12.355
15141,-8.3135,-14.558
15152,-6.9063,-15.815
15164,0.44463,-13.091
15176,2.0088,-14.605
15188,-5.985,-14.522
15199,-5.6528,-14.11
15211,-8.134,-14.269
15223,-6.1876,-14.892
15234,-6.8146,-13.949
15246,-6.5972,-16.451
15258,-7.8158,-15.036
15270,-4.3554,-14.721
15281,-4.8036,-14.131
15293,-7.3126,-15.174
15305,-7.5022,-15.117
15316,-8.4257,-15.396
15328,-5.6783,-15.937
15340,-3.2365,-14.522
15352,-3.4112,-14.529
15363,-3.9335,-13.591
15375,-6.2687,-13.335
15387,-10.045,-15.039
15398,-6.3227,-17.976
15410,-6.2649,-18.493
15422,-10.068,-15.83
15434,-8.3654,-13.077
15445,-4.4449,-14.9
15457,-5.8631,-15.336
15469,-7.3049,-15.948
15480,-9.4355,-15.359
15492,-10.257,-15.725
15504,-8.1409,-16.227
15516,-10.127,-14.679
15527,-8.1161,-15.043
15539,-8.85,-14.699
15551,-8.6958,-13.16
15563,-8.6534,-12.397
15574,-8.6656,-14.088
15586,-6.8985,-15.765
15598,-5.7132,-14.818
15609,-5.95,-15.927
15621,-8.4716,-17.148
15633,-4.9017,-16.05
15645,-4.468,-17.054
15656,-7.6329,-15.737
15668,-6.1873,-12.938
15680,-7.9724,-14.196
15691,-12.378,-15.686
15703,-8.6633,-16.294
15715,-6.3102,-17.74
15727,-5.1425,-15.321
15738,-6.0445,-14.227
15750,-7.4256,-12.538
15762,-7.0313,-10.991
15773,-6.0091,-14.212
15785,-7.8079,-13.111
15797,-11.218,-14.187
15809,-8.4923,-15.629
15820,-9.0592,-14
15832,-7.3176,-13.067
15844,-6.997,-14.455
15855,-8.9626,-14.608
15867,-8.6962,-15.776
15879,-7.6126,-13.567
15891,-5.8998,-15.779
15902,-6.2955,-16.751
15914,-2.0126,-16.766
15926,-2.956,-16.864
15938,3.4498,-14.904
15949,8.2588,-15.48
15961,14.901,-18.783
15973,25.141,-17.21
15984,45.157,-17.073
15996,56.044,-13.244
16008,54.116,-12.423
16020,36.118,-14.367
16031,21.182,-14.293
16043,12.445,-14.823
16055,5.7562,-16.781
16066,1.8727,-15.473
16078,-3.7369,-15.019
16090,-5.7521,-15.736
16102,-3.9131,-17.681
16113,-4.184,-19.786
16125,-7.5615,-15.865
16137,-8.0214,-15.828
16148,-6.6942,-16.751
16160,-10.262,-13.017
16172,-11.964,-16.15
16184,-10.856,-15.05
16195,-8.8737,-13.422
16207,-7.4053,-15.196
16219,-7.9754,-14.594
16230,-8.8612,-17.033
16242,-10.329,-16.123
16254,-6.9963,-14.018
16266,-4.6233,-15.378
16277,-5.1495,-13.428
16289,-7.9516,-17.489
16301,-8.8286,-14.419
16313,-5.2124,-13.308
16324,-5.3905,-15.9
16336,-5.7247,-17.228
16348,-8.7555,-16.269
16359,-7.8327,-14.78
16371,-7.7096,-12.869
16383,-9.3518,-13.45
16395,-10.92,-16.297
16406,-9.1538,-19.468
16418,-9.9528,-17.796
16430,-8.5357,-18.021
16441,-8.3751,-17.289
16453,-11.012,-15.47
16465,-9.6311,-15.487
16477,-9.2865,-13.918
16488,-12.135,-14.741
16500,-9.1938,-16.877
16512,-7.2096,-17.268
16523,-9.5665,-15.725
16535,-9.5598,-15.828
16547,-8.2594,-16.319
16559,-6.8746,-14.886
16570,-6.4797,-15.164
16582,-9.6328,-13.457
16594,-11.437,-11.698
16605,-10.069,-13.046
16617,-9.5504,-16.637
16629,-8.2164,-16.446
16641,-9.0114,-15.67
16652,-8.8207,-17.024
16664,-8.3094,-17.837
16676,-8.1544,-16.23
16688,-9.047,-14.811
16699,-7.7112,-17.569
16711,-7.8027,-15.525
16723,-10.192,-17.675
16734,-9.7349,-20.088
16746,-8.4989,-19.01
16758,-7.557,-14.221
16770,-8.4576,-14.709
16781,-9.2237,-13.919
16793,-10.789,-12.859
16805,-8.3769,-15.026
16816,-2.672,-14.047
16828,1.1886,-14.764
16840,-4.6222,-12.621
16852,-7.5956,-13.46
16863,-8.0021,-13.087
16875,-8.9961,-13.862
16887,-11.167,-16.074
16898,-9.9914,-16.815
16910,-7.8482,-16.579
16922,-8.3155,-16.364
16934,-9.6056,-14.937
16945,-9.5248,-14.882
16957,-9.3672,-15.42
16969,-9.4095,-16.022
16980,-8.7289,-17.183
16992,-8.7622,-15.376
17004,-11.268,-12.87
17016,-13.459,-15.973
17027,-14.023,-18.817
17039,-14.459,-17.683
17051,-11.257,-16.958
17063,-9.2816,-16.887
17074,-8.935,-15.508
17086,-9.6932,-17.425
17098,-7.6138,-15.883
17109,-7.1907,-14.817
17121,-7.641,-14.915
17133,-12.204,-14.015
17145,-8.4916,-19.012
17156,-11.363,-14.893
17168,-8.042,-14.51
17180,-9.24,-15.838
17191,-7.2169,-17.019
17203,-11.724,-16.19
17215,-11.877,-13.88
17227,-10.715,-15.213
17238,-10.567,-13.926
17250,-10.168,-15.798
17262,-8.4667,-15.807
17273,-9.5757,-13.302
17285,-12.312,-15.268
17297,-11.837,-17.282
17309,-10.296,-17.965
17320,-10.594,-15.269
17332,-9.5077,-14.529
17344,-8.7791,-17.067
17355,-11.467,-18.749
17367,-11.153,-16.102
17379,-9.7796,-17.688
17391,-9.1524,-17.952
17402,-10.427,-15.979
17414,-10.084,-15.374
17426,-7.3346,-16.253
17438,-8.6878,-19.991
17449,-9.5983,-17.673
17461,-8.4094,-16.497
17473,-8.9981,-16.432
17484,-10.532,-19.392
17496,-9.3251,-15.93
17508,-10.297,-13.927
17520,-13.266,-17.332
17531,-11.127,-16.168
17543,-13.107,-17.213
17555,-10.883,-15.71
17566,-7.0295,-14.789
17578,-7.3558,-16.997
17590,-12.499,-16.118
17602,-12.533,-15.688
17613,-11.115,-17.336
17625,-8.2696,-13.528
17637,-10.277,-16.191
17648,-11.086,-17.949
17660,-10.377,-17.862
17672,-11.188,-13.601
17684,-10.434,-12.501
17695,-9.6066,-13.533
17707,-13.678,-16.892
17719,-12.421,-15.759
17730,-9.5561,-15.87
17742,-8.8763,-16.371
17754,-15.528,-15.234
17766,-12.733,-15.95
17777,-10.895,-17.071
17789,-12.752,-18.604
17801,-12.734,-16.927
17813,-11.754,-18.149
17824,-11.08,-18.863
17836,-10.393,-17.185
17848,-8.5797,-18.111
17859,-8.7325,-20.714
17871,-10.753,-19.3
17883,-11.353,-16.117
17895,-12.822,-17.85
17906,-13.287,-17.112
17918,-10.097,-16.09
17930,-11.362,-16.099
17941,-11.45,-15.328
17953,-12.176,-16.107
17965,-11.978,-17.878
17977,-12.539,-16.394
17988,-12.587,-16.521
18000,-9.5982,-16.349
18012,-8.2678,-17.926
18023,-10.259,-17.539
18035,-12.668,-16.601
18047,-13.482,-18.028
18059,-15.041,-18.167
18070,-12.649,-18.329
18082,-10.181,-13.81
18094,-7.7741,-15.328
18105,-9.3751,-16.943
18117,-10.61,-16.928
18129,-9.5413,-16.983
18141,-8.0392,-16.94
18152,-7.1569,-16.505
18164,-9.5622,-15.937
18176,-11.119,-18.09
18188,-11.772,-17.71
18199,-11.859,-17.476
18211,-9.8398,-16.906
18223,-10.772,-17.389
18234,-12.096,-17.864
18246,-11.873,-16.385
18258,-12.441,-15.746
18270,-12.608,-17.291
18281,-12.426,-15.477
18293,-9.9814,-15.187
18305,-9.9578,-15.711
18316,-10.725,-16.436
18328,-10.101,-15.366
18340,-11.978,-18.114
18352,-12.194,-16.987
18363,-11.46,-17.53
18375,-9.1675,-19.388
18387,-9.4079,-18.721
18398,-8.5265,-15.817
18410,-11.646,-18.313
18422,-8.1522,-20.014
18434,-9.0079,-20.232
18445,-14.766,-18.327
18457,-15.475,-18.867
18469,-12.523,-17.523
18480,-9.1669,-19.856
18492,-8.6767,-18.979
18504,-8.7102,-20.137
18516,-14.294,-21.072
18527,-12.172,-19.409
18539,-11.272,-21.267
18551,-10.612,-21.081
18563,-9.6126,-20.036
18574,-14.368,-17.151
18586,-13.769,-18.072
18598,-15.276,-19.565
18609,-10.488,-16.675
18621,-14.07,-15.754
18633,-12.659,-17.43
18645,-12.176,-18.056
18656,-12.567,-18.169
18668,-11.525,-16.007
18680,-12.47,-18.46
18691,-9.1026,-17.823
18703,-11.591,-19.703
18715,-13.475,-16.671
18727,-10.192,-16.774
18738,-10.338,-16.112
18750,-11.576,-18.736
18762,-13.891,-16.591
18773,-12.352,-15.873
18785,-12.713,-16.973
18797,-12.594,-15.567
18809,-11.345,-16.292
18820,-11.901,-17.401
18832,-14.357,-16.725
18844,-12.483,-18.501
18855,-12.568,-20.148
18867,-9.6785,-18.03
18879,-9.9622,-18.114
18891,-12.553,-16.327
18902,-15.177,-18.531
18914,-12.414,-20.134
18926,-10.703,-21.104
18938,-10.733,-16.938
18949,-11.707,-16.471
18961,-10.667,-19.577
18973,-9.1859,-15.139
18984,-10.879,-15.671
18996,-13.273,-15.77
19008,-11.347,-16.063
19020,-12.44,-17.789
19031,-15.25,-18.247
19043,-15.432,-16.166
19055,-13.939,-17.843
19066,-14.189,-16.231
19078,-14.774,-15.514
19090,-13.399,-19.392
19102,-16.599,-20.024
19113,-14.066,-19.063
19125,-12.94,-16.882
19137,-11.237,-19.16
19148,-11.164,-18.479
19160,-10.261,-17.656
19172,-10.264,-17.269
19184,-12.343,-20.596
19195,-12.398,-21.006
19207,-11.004,-21.358
19219,-11.406,-18.015
19230,-13.909,-15.129
19242,-11.783,-16.549
19254,-10.303,-17.656
19266,-15.779,-15.776
19277,-16.005,-16.161
19289,-16.92,-17.08
19301,-11.738,-18.968
19313,-9.5306,-15.419
19324,-12.698,-15.084
19336,-14.015,-20.817
19348,-14.304,-14.431
19359,-12.091,-15.863
19371,-11.35,-18.983
19383,-12.95,-17.902
19395,-14.659,-19.348
19406,-12.185,-20.513
19418,-11.491,-17.691
19430,-12.038,-17.72
19441,-9.5817,-18.961
19453,-10.536,-16.785
19465,-11.41,-17.549
19477,-12.765,-17.908
19488,-13.785,-15.508
19500,-12.965,-19.215
19512,-11.741,-19.675
19523,-13.358,-18.014
19535,-15.124,-17.713
19547,-13.766,-17.676
19559,-11.723,-17.676
19570,-12.116,-18.007
19582,-11.686,-16.439
19594,-14.003,-19.206
19605,-13.177,-18.627
19617,-15.981,-17.438
19629,-14.092,-18.622
19641,-12.533,-14.855
19652,-10.341,-14.285
19664,-11.715,-15.97
19676,-13.666,-18.945
19688,-12.647,-17.647
19699,-15.7,-16.126
19711,-12.873,-17.355
19723,-13.643,-18.875
19734,-15.593,-22.098
19746,-17.617,-17.324
19758,-18.893,-19.281
19770,-15.6,-19.668
19781,-13.221,-17.199
19793,-12.86,-18.445
19805,-15.813,-19.27
19816,-16.567,-16.384
19828,-17.044,-16.897
19840,-15.599,-17.085
19852,-12.948,-17.693
19863,-14.576,-18.644
19875,-17.136,-16.592
19887,-15.11,-18.005
19898,-11.94,-16.447
19910,-11.798,-17.722
19922,-11.943,-19.744
19934,-12.278,-19.445
19945,-12.246,-19.958
19957,-16.381,-18.107
19969,-14.866,-19.768
19980,-11.752,-21.937
19992,-12.509,-16.741
20004,-15.561,-14.749
20016,-14.481,-20.558
20027,-13.266,-23.093
20039,-15.923,-21.477
20051,-15.018,-19.486
20063,-14.715,-19.144
20074,-15.431,-20.26
20086,-14.504,-17.799
20098,-15.311,-17.088
20109,-13.487,-17.965
20121,-10.763,-18.093
20133,-10.52,-18.201
20145,-12.413,-18.946
20156,-17.301,-18.052
20168,-14.844,-14.706
20180,-13.084,-15.358
20191,-14.41,-15.934
20203,-13.221,-15.464
20215,-11.086,-18.784
20227,-13.072,-21.457
20238,-14.492,-17.049
20250,-13.389,-15.831
20262,-14.671,-18.853
20273,-13.065,-19.004
20285,-12.331,-18.049
20297,-15.586,-18.602
20309,-17.494,-18.987
20320,-14.362,-17.122
20332,-13.727,-18.006
20344,-12.1,-18.332
20355,-12.433,-17.731
20367,-16.669,-16.067
20379,-15.059,-18.701
20391,-14.039,-19.046
20402,-12.364,-17.86
20414,-14.129,-18.162
20426,-12.461,-16.406
20438,-13.614,-18.139
20449,-14.3,-17.58
20461,-13.37,-17.221
20473,-15.417,-16.489
20484,-17.407,-14.877
20496,-14.938,-19.1
20508,-15.385,-19.732
20520,-11.852,-16.857
20531,-12.331,-15.777
20543,-13.75,-18.375
20555,-14.525,-21.104
20566,-13.704,-19.071
20578,-14.698,-18.072
20590,-14.894,-19.858
20602,-13.25,-19.292
20613,-12.144,-19.016
20625,-10.451,-19.625
20637,-11.006,-19.19
20648,-12.613,-19.015
20660,-12.567,-20.358
20672,-13.535,-21.149
20684,-15.529,-20.107
20695,-13.897,-18.584
20707,-15.021,-18.662
20719,-16.279,-21.208
20730,-18.688,-19.886
20742,-13.91,-17.51
20754,-13.188,-17.856
20766,-14.133,-19.493
20777,-14.664,-20.782
20789,-15.382,-18.852
20801,-16.242,-18.21
20813,-16.344,-19.502
20824,-14.88,-19.373
20836,-15.311,-17.768
20848,-15.365,-18.663
20859,-11.736,-19.145
20871,-11.486,-22.757
20883,-15.121,-18.638
20895,-16.226,-17.586
20906,-14.625,-17.201
20918,-14.381,-17.845
20930,-17.669,-19.138
20941,-14.792,-21.835
20953,-12.643,-20.115
20965,-12.136,-19.418
20977,-12.235,-20.453
20988,-13.163,-17.361
21000,-15.082,-14.747
21012,-15.354,-20.39
21023,-14.224,-17.064
21035,-12.052,-18.703
21047,-12.991,-17.486
21059,-15.616,-21.458
21070,-16.545,-19.837
21082,-16.945,-20.724
21094,-13.993,-21.286
21105,-16.4,-21.25
21117,-15.256,-21.688
21129,-15.663,-22.205
21141,-14.972,-22.188
21152,-17.312,-18.918
21164,-18.958,-17.704
21176,-14.706,-17.73
21188,-12.149,-17.618
21199,-11.308,-19.126
21211,-12.893,-20.644
21223,-15.384,-18.347
21234,-16.266,-18.415
21246,-14.832,-20.781
21258,-13.304,-20.372
21270,-14.154,-17.069
21281,-14.454,-15.607
21293,-13.104,-20.708
21305,-12.536,-20.465
21316,-15.562,-17.81
21328,-14.182,-16.33
21340,-14.189,-16.746
21352,-15.081,-18.695
21363,-18.307,-16.702
21375,-14.916,-19.244
21387,-12.645,-19.276
21398,-14.1,-19.319
21410,-14.308,-19.367
21422,-13.383,-20.025
21434,-14.446,-20.672
21445,-15.861,-18.45
21457,-15.677,-16.684
21469,-15.102,-17.415
21480,-16.966,-20.596
21492,-15.131,-21.852
21504,-15.254,-21.085
21516,-15.792,-18.023
21527,-15.355,-20.238
21539,-14.92,-18.276
21551,-15.424,-18.593
21563,-17.039,-19.253
21574,-17.555,-21.01
21586,-15.752,-22.093
21598,-15.533,-20.016
21609,-14.791,-17.002
21621,-14.498,-19.264
21633,-13.112,-18.823
21645,-12.086,-19.966
21656,-18.152,-22.592
21668,-15.683,-20.435
21680,-14.259,-21.903
21691,-15.642,-22.839
21703,-16.648,-20.374
21715,-19.209,-18.372
21727,-17.603,-19.837
21738,-14.36,-20.962
21750,-13.012,-20.377
21762,-15.118,-18.294
21773,-15.565,-18.256
21785,-14.925,-20.341
21797,-16.123,-19.131
21809,-17.094,-17.71
21820,-18.362,-17.875
21832,-16.816,-17.106
21844,-15.42,-18.891
21855,-15.817,-17.815
21867,-14.467,-19.215
21879,-16.458,-20.402
21891,-17.043,-16.495
21902,-14.467,-16.204
21914,-12.987,-17.425
21926,-11.802,-16.599
21938,-13.6,-17.202
21949,-14.563,-19.376
21961,-14.32,-22.548
21973,-16.634,-20.258
21984,-16.686,-21.52
21996,-14.745,-17.772
22008,-15.49,-16.007
22020,-18.393,-17.98
22031,-17.026,-20.428
22043,-19.402,-20.814
22055,-20.363,-22.652
22066,-18.211,-20.919
22078,-15.117,-22.559
22090,-16.465,-20.771
22102,-18.583,-18.264
22113,-18.428,-18.678
22125,-17.696,-17.395
22137,-16.947,-18.752
22148,-15.922,-17.355
22160,-16.4,-17.34
22172,-16.59,-21.179
22184,-14.546,-19.967
22195,-15.503,-18.044
22207,-17.729,-17.25
22219,-15.287,-21.069
22230,-15.824,-20.673
22242,-18.385,-19.986
22254,-16.635,-20.275
22266,-15.025,-18.847
22277,-16.477,-18.474
22289,-17.244,-18.457
22301,-17.372,-17.996
22313,-16.878,-20.01
22324,-16.286,-19.765
22336,-19.053,-20.509
22348,-19.585,-21.699
22359,-18.771,-18.579
22371,-16.071,-16.572
22383,-13.44,-16.753
22395,-15.155,-20.24
22406,-18.508,-19.016
22418,-17.513,-17.77
22430,-20.629,-18.296
22441,-21.467,-22.097
22453,-21.417,-20.782
22465,-21.21,-19.678
22477,-18.269,-21.298
22488,-18.343,-21.485
22500,-15.827,-17.397
22512,-16.952,-18.129
22523,-17.598,-20.713
22535,-17.731,-17.478
22547,-14.426,-18.368
22559,-13.323,-23.127
22570,-16.513,-19.75
22582,-15.815,-20.963
22594,-14.024,-20.646
22605,-13.246,-18.51
22617,-13.226,-18.648
22629,-13.6,-19.348
22641,-18.572,-19.744
22652,-18.96,-19.445
22664,-17.458,-21.56
22676,-16.29,-18.5
22688,-16.396,-19.338
22699,-19.511,-20.064
22711,-19.57,-20.757
22723,-16.877,-21.139
22734,-18.665,-22.756
22746,-16.627,-19.935
22758,-14.93,-19.536
22770,-15.883,-21.404
22781,-15.255,-21.484
22793,-13.677,-20.153
22805,-14.498,-19.323
22816,-17.224,-21.65
22828,-17.738,-21.949
22840,-17.137,-22.914
22852,-15.53,-20.948
22863,-15.575,-18.972
22875,-16.079,-21.294
22887,-18.871,-21.331
22898,-16.252,-21.906
22910,-13.604,-17.915
22922,-15.126,-16.612
22934,-16.695,-20.344
22945,-17.759,-22.792
22957,-18.137,-19.781
22969,-19.569,-22.308
22980,-19.011,-22.908
22992,-16.601,-18.476
23004,-18.185,-16.288
23016,-19.568,-19.696
23027,-20.273,-21.02
23039,-19.818,-20.915
23051,-18.063,-21.918
23063,-17.648,-21.988
23074,-16.874,-20.521
23086,-17.986,-21.804
23098,-14.603,-18.015
23109,-14.878,-15.2
23121,-16.663,-17.704
23133,-21.34,-22.286
23145,-18.531,-24.31
23156,-15.511,-20.727
23168,-17.694,-17.817
23180,-16.053,-15.967
23191,-15.35,-16.682
23203,-17.16,-19.733
23215,-18.292,-21.246
23227,-17.1,-19.803
23238,-15.347,-20.086
23250,-16.902,-23.707
23262,-17.364,-20.09
23273,-20.314,-19.324
23285,-20.505,-18.405
23297,-17.146,-19.493
23309,-16.03,-20.884
23320,-17.535,-22.883
23332,-18.234,-19.851
23344,-17.022,-20.701
23355,-17.301,-21.985
23367,-20.018,-23.905
23379,-21.854,-21.37
23391,-18.914,-18.604
23402,-14.683,-18.84
23414,-18.674,-18.979
23426,-17.974,-19.627
23438,-17.829,-20.869
23449,-18.05,-18.375
23461,-16.181,-20.548
23473,-16.754,-18.498
23484,-16.187,-19.777
23496,-18.949,-20.089
23508,-18.452,-18.785
23520,-19.576,-19.676
23531,-19.163,-21.304
23543,-19.253,-21.475
23555,-19.447,-22.169
23566,-17.287,-23.553
23578,-19.357,-18.028
23590,-17.763,-16.315
23602,-16.687,-18.926
23613,-18.086,-20.88
23625,-16.943,-22.74
23637,-20.115,-19.514
23648,-17.301,-21.011
23660,-18.4,-21.908
23672,-20.434,-20.507
23684,-19.35,-22.135
23695,-18.687,-23.336
23707,-21.398,-22.763
23719,-19.967,-22.331
23730,-18.889,-23.11
23742,-15.762,-19.859
23754,-16.372,-18.961
23766,-17.99,-19.351
23777,-17.119,-20.288
23789,-16.554,-23.497
23801,-16.138,-20.861
23813,-16.458,-23.269
23824,-17.33,-20.743
23836,-18.03,-20.168
23848,-19.443,-22.632
23859,-19.322,-23.414
23871,-19.502,-23.149
23883,-19.261,-20
23895,-18.61,-19.181
23906,-18.43,-18.427
23918,-21.292,-18.005
23930,-20.593,-19.041
23941,-20.988,-20.032
23953,-15.493,-20.031
23965,-15.694,-19.982
23977,-19.255,-20.348
23988,-17.896,-22.259
